  STEP   TOTAL TIME             LOCATION OF OBSERVATION POINTS (K,I,J)
                      1   1  51
     1    1.0000       7.79473E-12
     2    2.0000       1.01910E-10
     3    3.0000       6.94460E-10
     4    4.0000       3.28712E-09
     5    5.0000       1.21519E-08
     6    6.0000       3.74046E-08
     7    7.0000       9.98022E-08
     8    8.0000       2.37287E-07
     9    9.0000       5.12886E-07
    10    10.000       1.02319E-06
    11    11.000       1.90638E-06
    12    12.000       3.34868E-06
    13    13.000       5.58828E-06
    14    14.000       8.91609E-06
    15    15.000       1.36731E-05
    16    16.000       2.02442E-05
    17    17.000       2.90493E-05
    18    18.000       4.05325E-05
    19    19.000       5.51491E-05
    20    20.000       7.33531E-05
    21    21.000       9.55840E-05
    22    22.000       1.22256E-04
    23    23.000       1.53745E-04
    24    24.000       1.90384E-04
    25    25.000       2.32454E-04
    26    26.000       2.80180E-04
    27    27.000       3.33726E-04
    28    28.000       3.93201E-04
    29    29.000       4.58649E-04
    30    30.000       5.30064E-04
    31    31.000       6.07382E-04
    32    32.000       6.90491E-04
    33    33.000       7.79236E-04
    34    34.000       8.73421E-04
    35    35.000       9.72816E-04
    36    36.000       1.07716E-03
    37    37.000       1.18618E-03
    38    38.000       1.29957E-03
    39    39.000       1.41701E-03
    40    40.000       1.53820E-03
    41    41.000       1.66278E-03
    42    42.000       1.79045E-03
    43    43.000       1.92087E-03
    44    44.000       2.05372E-03
    45    45.000       2.18868E-03
    46    46.000       2.32545E-03
    47    47.000       2.46374E-03
    48    48.000       2.60327E-03
    49    49.000       2.74376E-03
    50    50.000       2.88496E-03
    51    51.000       3.02663E-03
    52    52.000       3.16855E-03
    53    53.000       3.31051E-03
    54    54.000       3.45232E-03
    55    55.000       3.59379E-03
    56    56.000       3.73477E-03
    57    57.000       3.87510E-03
    58    58.000       4.01466E-03
    59    59.000       4.15331E-03
    60    60.000       4.29096E-03
    61    61.000       4.42749E-03
    62    62.000       4.56284E-03
    63    63.000       4.69693E-03
    64    64.000       4.82968E-03
    65    65.000       4.96106E-03
    66    66.000       5.09101E-03
    67    67.000       5.21950E-03
    68    68.000       5.34650E-03
    69    69.000       5.47199E-03
    70    70.000       5.59596E-03
    71    71.000       5.71839E-03
    72    72.000       5.83928E-03
    73    73.000       5.95865E-03
    74    74.000       6.07648E-03
    75    75.000       6.19279E-03
    76    76.000       6.30760E-03
    77    77.000       6.42093E-03
    78    78.000       6.53279E-03
    79    79.000       6.64321E-03
    80    80.000       6.75220E-03
    81    81.000       6.85981E-03
    82    82.000       6.96605E-03
    83    83.000       7.07096E-03
    84    84.000       7.17457E-03
    85    85.000       7.27690E-03
    86    86.000       7.37799E-03
    87    87.000       7.47788E-03
    88    88.000       7.57659E-03
    89    89.000       7.67416E-03
    90    90.000       7.77063E-03
    91    91.000       7.86602E-03
    92    92.000       7.96038E-03
    93    93.000       8.05372E-03
    94    94.000       8.14609E-03
    95    95.000       8.23751E-03
    96    96.000       8.32803E-03
    97    97.000       8.41766E-03
    98    98.000       8.50645E-03
    99    99.000       8.59441E-03
   100    100.00       8.68158E-03
   101    101.00       8.76799E-03
   102    102.00       8.85366E-03
   103    103.00       8.93863E-03
   104    104.00       9.02291E-03
   105    105.00       9.10654E-03
   106    106.00       9.18954E-03
   107    107.00       9.27193E-03
   108    108.00       9.35374E-03
   109    109.00       9.43498E-03
   110    110.00       9.51569E-03
   111    111.00       9.59587E-03
   112    112.00       9.67556E-03
   113    113.00       9.75477E-03
   114    114.00       9.83352E-03
   115    115.00       9.91183E-03
   116    116.00       9.98971E-03
   117    117.00       1.00672E-02
   118    118.00       1.01443E-02
   119    119.00       1.02210E-02
   120    120.00       1.02973E-02
   121    121.00       1.03733E-02
   122    122.00       1.04490E-02
   123    123.00       1.05243E-02
   124    124.00       1.05994E-02
   125    125.00       1.06741E-02
   126    126.00       1.07486E-02
   127    127.00       1.08228E-02
   128    128.00       1.08967E-02
   129    129.00       1.09704E-02
   130    130.00       1.10438E-02
   131    131.00       1.11170E-02
   132    132.00       1.11900E-02
   133    133.00       1.12628E-02
   134    134.00       1.13353E-02
   135    135.00       1.14077E-02
   136    136.00       1.14798E-02
   137    137.00       1.15518E-02
   138    138.00       1.16236E-02
   139    139.00       1.16952E-02
   140    140.00       1.17667E-02
   141    141.00       1.18379E-02
   142    142.00       1.19091E-02
   143    143.00       1.19801E-02
   144    144.00       1.20509E-02
   145    145.00       1.21216E-02
   146    146.00       1.21921E-02
   147    147.00       1.22626E-02
   148    148.00       1.23329E-02
   149    149.00       1.24030E-02
   150    150.00       1.24731E-02
   151    151.00       1.25430E-02
   152    152.00       1.26128E-02
   153    153.00       1.26825E-02
   154    154.00       1.27521E-02
   155    155.00       1.28216E-02
   156    156.00       1.28910E-02
   157    157.00       1.29603E-02
   158    158.00       1.30295E-02
   159    159.00       1.30985E-02
   160    160.00       1.31675E-02
     1    161.00       1.32364E-02
     2    162.00       1.33052E-02
     3    163.00       1.33740E-02
     4    164.00       1.34426E-02
     5    165.00       1.35111E-02
     6    166.00       1.35796E-02
     7    167.00       1.36479E-02
     8    168.00       1.37160E-02
     9    169.00       1.37840E-02
    10    170.00       1.38516E-02
    11    171.00       1.39187E-02
    12    172.00       1.39853E-02
    13    173.00       1.40509E-02
    14    174.00       1.41154E-02
    15    175.00       1.41784E-02
    16    176.00       1.42395E-02
    17    177.00       1.42983E-02
    18    178.00       1.43543E-02
    19    179.00       1.44072E-02
    20    180.00       1.44564E-02
    21    181.00       1.45014E-02
    22    182.00       1.45420E-02
    23    183.00       1.45777E-02
    24    184.00       1.46081E-02
    25    185.00       1.46331E-02
    26    186.00       1.46523E-02
    27    187.00       1.46657E-02
    28    188.00       1.46730E-02
    29    189.00       1.46743E-02
    30    190.00       1.46696E-02
    31    191.00       1.46589E-02
    32    192.00       1.46423E-02
    33    193.00       1.46200E-02
    34    194.00       1.45922E-02
    35    195.00       1.45592E-02
    36    196.00       1.45211E-02
    37    197.00       1.44783E-02
    38    198.00       1.44310E-02
    39    199.00       1.43797E-02
    40    200.00       1.43245E-02
    41    201.00       1.42658E-02
    42    202.00       1.42040E-02
    43    203.00       1.41394E-02
    44    204.00       1.40723E-02
    45    205.00       1.40030E-02
    46    206.00       1.39318E-02
    47    207.00       1.38590E-02
    48    208.00       1.37850E-02
    49    209.00       1.37099E-02
    50    210.00       1.36340E-02
    51    211.00       1.35576E-02
    52    212.00       1.34808E-02
    53    213.00       1.34040E-02
    54    214.00       1.33272E-02
    55    215.00       1.32507E-02
    56    216.00       1.31747E-02
    57    217.00       1.30992E-02
    58    218.00       1.30244E-02
    59    219.00       1.29504E-02
    60    220.00       1.28774E-02
    61    221.00       1.28055E-02
    62    222.00       1.27346E-02
    63    223.00       1.26649E-02
    64    224.00       1.25965E-02
    65    225.00       1.25294E-02
    66    226.00       1.24637E-02
    67    227.00       1.23994E-02
    68    228.00       1.23364E-02
    69    229.00       1.22750E-02
    70    230.00       1.22149E-02
    71    231.00       1.21564E-02
    72    232.00       1.20993E-02
    73    233.00       1.20436E-02
    74    234.00       1.19894E-02
    75    235.00       1.19367E-02
    76    236.00       1.18854E-02
    77    237.00       1.18355E-02
    78    238.00       1.17870E-02
    79    239.00       1.17399E-02
    80    240.00       1.16941E-02
    81    241.00       1.16496E-02
    82    242.00       1.16065E-02
    83    243.00       1.15646E-02
    84    244.00       1.15239E-02
    85    245.00       1.14844E-02
    86    246.00       1.14461E-02
    87    247.00       1.14089E-02
    88    248.00       1.13728E-02
    89    249.00       1.13378E-02
    90    250.00       1.13038E-02
    91    251.00       1.12709E-02
    92    252.00       1.12388E-02
    93    253.00       1.12078E-02
    94    254.00       1.11776E-02
    95    255.00       1.11483E-02
    96    256.00       1.11198E-02
    97    257.00       1.10921E-02
    98    258.00       1.10652E-02
    99    259.00       1.10391E-02
   100    260.00       1.10136E-02
   101    261.00       1.09889E-02
   102    262.00       1.09648E-02
   103    263.00       1.09414E-02
   104    264.00       1.09185E-02
   105    265.00       1.08962E-02
   106    266.00       1.08745E-02
   107    267.00       1.08533E-02
   108    268.00       1.08327E-02
   109    269.00       1.08125E-02
   110    270.00       1.07927E-02
   111    271.00       1.07734E-02
   112    272.00       1.07546E-02
   113    273.00       1.07361E-02
   114    274.00       1.07180E-02
   115    275.00       1.07003E-02
   116    276.00       1.06829E-02
   117    277.00       1.06659E-02
   118    278.00       1.06492E-02
   119    279.00       1.06327E-02
   120    280.00       1.06166E-02
   121    281.00       1.06007E-02
   122    282.00       1.05851E-02
   123    283.00       1.05697E-02
   124    284.00       1.05545E-02
   125    285.00       1.05396E-02
   126    286.00       1.05249E-02
   127    287.00       1.05103E-02
   128    288.00       1.04959E-02
   129    289.00       1.04818E-02
   130    290.00       1.04677E-02
   131    291.00       1.04539E-02
   132    292.00       1.04401E-02
   133    293.00       1.04266E-02
   134    294.00       1.04131E-02
   135    295.00       1.03998E-02
   136    296.00       1.03865E-02
   137    297.00       1.03734E-02
   138    298.00       1.03604E-02
   139    299.00       1.03475E-02
   140    300.00       1.03346E-02
   141    301.00       1.03218E-02
   142    302.00       1.03092E-02
   143    303.00       1.02965E-02
   144    304.00       1.02840E-02
   145    305.00       1.02715E-02
   146    306.00       1.02591E-02
   147    307.00       1.02467E-02
   148    308.00       1.02344E-02
   149    309.00       1.02221E-02
   150    310.00       1.02098E-02
   151    311.00       1.01976E-02
   152    312.00       1.01854E-02
   153    313.00       1.01733E-02
   154    314.00       1.01612E-02
   155    315.00       1.01491E-02
   156    316.00       1.01370E-02
   157    317.00       1.01249E-02
   158    318.00       1.01129E-02
   159    319.00       1.01009E-02
   160    320.00       1.00889E-02
   161    321.00       1.00769E-02
   162    322.00       1.00649E-02
   163    323.00       1.00529E-02
   164    324.00       1.00409E-02
   165    325.00       1.00289E-02
   166    326.00       1.00170E-02
   167    327.00       1.00050E-02
   168    328.00       9.99301E-03
   169    329.00       9.98103E-03
   170    330.00       9.96906E-03
   171    331.00       9.95708E-03
   172    332.00       9.94509E-03
   173    333.00       9.93310E-03
   174    334.00       9.92110E-03
   175    335.00       9.90909E-03
   176    336.00       9.89708E-03
   177    337.00       9.88505E-03
   178    338.00       9.87302E-03
   179    339.00       9.86097E-03
   180    340.00       9.84892E-03
   181    341.00       9.83685E-03
   182    342.00       9.82477E-03
   183    343.00       9.81267E-03
   184    344.00       9.80057E-03
   185    345.00       9.78845E-03
   186    346.00       9.77632E-03
   187    347.00       9.76417E-03
   188    348.00       9.75201E-03
   189    349.00       9.73983E-03
   190    350.00       9.72763E-03
   191    351.00       9.71543E-03
   192    352.00       9.70320E-03
   193    353.00       9.69096E-03
   194    354.00       9.67871E-03
   195    355.00       9.66644E-03
   196    356.00       9.65415E-03
   197    357.00       9.64185E-03
   198    358.00       9.62953E-03
   199    359.00       9.61719E-03
   200    360.00       9.60484E-03
   201    361.00       9.59247E-03
   202    362.00       9.58009E-03
   203    363.00       9.56768E-03
   204    364.00       9.55526E-03
   205    365.00       9.54283E-03
   206    366.00       9.53038E-03
   207    367.00       9.51791E-03
   208    368.00       9.50543E-03
   209    369.00       9.49293E-03
   210    370.00       9.48041E-03
   211    371.00       9.46788E-03
   212    372.00       9.45533E-03
   213    373.00       9.44277E-03
   214    374.00       9.43018E-03
   215    375.00       9.41759E-03
   216    376.00       9.40498E-03
   217    377.00       9.39235E-03
   218    378.00       9.37970E-03
   219    379.00       9.36704E-03
   220    380.00       9.35437E-03
   221    381.00       9.34168E-03
   222    382.00       9.32897E-03
   223    383.00       9.31625E-03
   224    384.00       9.30352E-03
   225    385.00       9.29077E-03
   226    386.00       9.27801E-03
   227    387.00       9.26523E-03
   228    388.00       9.25244E-03
   229    389.00       9.23963E-03
   230    390.00       9.22681E-03
   231    391.00       9.21398E-03
   232    392.00       9.20113E-03
   233    393.00       9.18827E-03
   234    394.00       9.17540E-03
   235    395.00       9.16251E-03
   236    396.00       9.14961E-03
   237    397.00       9.13670E-03
   238    398.00       9.12378E-03
   239    399.00       9.11084E-03
   240    400.00       9.09789E-03
   241    401.00       9.08493E-03
   242    402.00       9.07196E-03
   243    403.00       9.05898E-03
   244    404.00       9.04598E-03
   245    405.00       9.03297E-03
   246    406.00       9.01995E-03
   247    407.00       9.00692E-03
   248    408.00       8.99388E-03
   249    409.00       8.98084E-03
   250    410.00       8.96777E-03
   251    411.00       8.95470E-03
   252    412.00       8.94162E-03
   253    413.00       8.92853E-03
   254    414.00       8.91543E-03
   255    415.00       8.90233E-03
   256    416.00       8.88921E-03
   257    417.00       8.87608E-03
   258    418.00       8.86294E-03
   259    419.00       8.84980E-03
   260    420.00       8.83664E-03
   261    421.00       8.82348E-03
   262    422.00       8.81031E-03
   263    423.00       8.79713E-03
   264    424.00       8.78394E-03
   265    425.00       8.77075E-03
   266    426.00       8.75754E-03
   267    427.00       8.74433E-03
   268    428.00       8.73112E-03
   269    429.00       8.71789E-03
   270    430.00       8.70466E-03
   271    431.00       8.69142E-03
   272    432.00       8.67818E-03
   273    433.00       8.66492E-03
   274    434.00       8.65167E-03
   275    435.00       8.63840E-03
   276    436.00       8.62513E-03
   277    437.00       8.61186E-03
   278    438.00       8.59858E-03
   279    439.00       8.58529E-03
   280    440.00       8.57200E-03
   281    441.00       8.55870E-03
   282    442.00       8.54540E-03
   283    443.00       8.53210E-03
   284    444.00       8.51879E-03
   285    445.00       8.50547E-03
   286    446.00       8.49215E-03
   287    447.00       8.47883E-03
   288    448.00       8.46550E-03
   289    449.00       8.45217E-03
   290    450.00       8.43884E-03
   291    451.00       8.42550E-03
   292    452.00       8.41216E-03
   293    453.00       8.39881E-03
   294    454.00       8.38546E-03
   295    455.00       8.37211E-03
   296    456.00       8.35876E-03
   297    457.00       8.34540E-03
   298    458.00       8.33204E-03
   299    459.00       8.31868E-03
   300    460.00       8.30532E-03
   301    461.00       8.29196E-03
   302    462.00       8.27859E-03
   303    463.00       8.26522E-03
   304    464.00       8.25185E-03
   305    465.00       8.23848E-03
   306    466.00       8.22511E-03
   307    467.00       8.21174E-03
   308    468.00       8.19836E-03
   309    469.00       8.18499E-03
   310    470.00       8.17161E-03
   311    471.00       8.15823E-03
   312    472.00       8.14486E-03
   313    473.00       8.13148E-03
   314    474.00       8.11810E-03
   315    475.00       8.10473E-03
   316    476.00       8.09135E-03
   317    477.00       8.07797E-03
   318    478.00       8.06460E-03
   319    479.00       8.05122E-03
   320    480.00       8.03784E-03
   321    481.00       8.02447E-03
   322    482.00       8.01109E-03
   323    483.00       7.99772E-03
   324    484.00       7.98435E-03
   325    485.00       7.97098E-03
   326    486.00       7.95761E-03
   327    487.00       7.94424E-03
   328    488.00       7.93088E-03
   329    489.00       7.91751E-03
   330    490.00       7.90415E-03
   331    491.00       7.89079E-03
   332    492.00       7.87743E-03
   333    493.00       7.86408E-03
   334    494.00       7.85073E-03
   335    495.00       7.83737E-03
   336    496.00       7.82403E-03
   337    497.00       7.81068E-03
   338    498.00       7.79734E-03
   339    499.00       7.78400E-03
   340    500.00       7.77067E-03
   341    501.00       7.75734E-03
   342    502.00       7.74401E-03
   343    503.00       7.73068E-03
   344    504.00       7.71736E-03
   345    505.00       7.70404E-03
   346    506.00       7.69073E-03
   347    507.00       7.67742E-03
   348    508.00       7.66411E-03
   349    509.00       7.65081E-03
   350    510.00       7.63751E-03
   351    511.00       7.62422E-03
   352    512.00       7.61093E-03
   353    513.00       7.59765E-03
   354    514.00       7.58437E-03
   355    515.00       7.57109E-03
   356    516.00       7.55782E-03
   357    517.00       7.54456E-03
   358    518.00       7.53130E-03
   359    519.00       7.51804E-03
   360    520.00       7.50479E-03
   361    521.00       7.49155E-03
   362    522.00       7.47831E-03
   363    523.00       7.46508E-03
   364    524.00       7.45185E-03
   365    525.00       7.43863E-03
   366    526.00       7.42542E-03
   367    527.00       7.41221E-03
   368    528.00       7.39901E-03
   369    529.00       7.38581E-03
   370    530.00       7.37262E-03
   371    531.00       7.35944E-03
   372    532.00       7.34626E-03
   373    533.00       7.33309E-03
   374    534.00       7.31993E-03
   375    535.00       7.30677E-03
   376    536.00       7.29362E-03
   377    537.00       7.28048E-03
   378    538.00       7.26734E-03
   379    539.00       7.25421E-03
   380    540.00       7.24109E-03
   381    541.00       7.22798E-03
   382    542.00       7.21487E-03
   383    543.00       7.20177E-03
   384    544.00       7.18868E-03
   385    545.00       7.17560E-03
   386    546.00       7.16252E-03
   387    547.00       7.14945E-03
   388    548.00       7.13640E-03
   389    549.00       7.12334E-03
   390    550.00       7.11030E-03
   391    551.00       7.09726E-03
   392    552.00       7.08424E-03
   393    553.00       7.07122E-03
   394    554.00       7.05821E-03
   395    555.00       7.04520E-03
   396    556.00       7.03221E-03
   397    557.00       7.01923E-03
   398    558.00       7.00625E-03
   399    559.00       6.99329E-03
   400    560.00       6.98033E-03
   401    561.00       6.96738E-03
   402    562.00       6.95444E-03
   403    563.00       6.94151E-03
   404    564.00       6.92859E-03
   405    565.00       6.91568E-03
   406    566.00       6.90277E-03
   407    567.00       6.88988E-03
   408    568.00       6.87700E-03
   409    569.00       6.86412E-03
   410    570.00       6.85126E-03
   411    571.00       6.83841E-03
   412    572.00       6.82556E-03
   413    573.00       6.81273E-03
   414    574.00       6.79990E-03
   415    575.00       6.78709E-03
   416    576.00       6.77428E-03
   417    577.00       6.76149E-03
   418    578.00       6.74871E-03
   419    579.00       6.73593E-03
   420    580.00       6.72317E-03
   421    581.00       6.71042E-03
   422    582.00       6.69767E-03
   423    583.00       6.68494E-03
   424    584.00       6.67222E-03
   425    585.00       6.65951E-03
   426    586.00       6.64681E-03
   427    587.00       6.63412E-03
   428    588.00       6.62144E-03
   429    589.00       6.60878E-03
   430    590.00       6.59612E-03
   431    591.00       6.58348E-03
   432    592.00       6.57084E-03
   433    593.00       6.55822E-03
   434    594.00       6.54561E-03
   435    595.00       6.53301E-03
   436    596.00       6.52043E-03
   437    597.00       6.50785E-03
   438    598.00       6.49528E-03
   439    599.00       6.48273E-03
   440    600.00       6.47019E-03
   441    601.00       6.45766E-03
   442    602.00       6.44514E-03
   443    603.00       6.43263E-03
   444    604.00       6.42014E-03
   445    605.00       6.40766E-03
   446    606.00       6.39519E-03
   447    607.00       6.38273E-03
   448    608.00       6.37028E-03
   449    609.00       6.35785E-03
   450    610.00       6.34543E-03
   451    611.00       6.33302E-03
   452    612.00       6.32062E-03
   453    613.00       6.30823E-03
   454    614.00       6.29586E-03
   455    615.00       6.28350E-03
   456    616.00       6.27115E-03
   457    617.00       6.25882E-03
   458    618.00       6.24649E-03
   459    619.00       6.23418E-03
   460    620.00       6.22189E-03
   461    621.00       6.20960E-03
   462    622.00       6.19733E-03
   463    623.00       6.18507E-03
   464    624.00       6.17282E-03
   465    625.00       6.16059E-03
   466    626.00       6.14837E-03
   467    627.00       6.13616E-03
   468    628.00       6.12397E-03
   469    629.00       6.11179E-03
   470    630.00       6.09962E-03
   471    631.00       6.08747E-03
   472    632.00       6.07533E-03
   473    633.00       6.06320E-03
   474    634.00       6.05108E-03
   475    635.00       6.03898E-03
   476    636.00       6.02689E-03
   477    637.00       6.01482E-03
   478    638.00       6.00276E-03
   479    639.00       5.99071E-03
   480    640.00       5.97868E-03
   481    641.00       5.96666E-03
   482    642.00       5.95465E-03
   483    643.00       5.94266E-03
   484    644.00       5.93068E-03
   485    645.00       5.91872E-03
   486    646.00       5.90676E-03
   487    647.00       5.89483E-03
   488    648.00       5.88290E-03
   489    649.00       5.87099E-03
   490    650.00       5.85910E-03
   491    651.00       5.84722E-03
   492    652.00       5.83535E-03
   493    653.00       5.82349E-03
   494    654.00       5.81166E-03
   495    655.00       5.79983E-03
   496    656.00       5.78802E-03
   497    657.00       5.77622E-03
   498    658.00       5.76444E-03
   499    659.00       5.75267E-03
   500    660.00       5.74092E-03
   501    661.00       5.72918E-03
   502    662.00       5.71745E-03
   503    663.00       5.70574E-03
   504    664.00       5.69405E-03
   505    665.00       5.68236E-03
   506    666.00       5.67070E-03
   507    667.00       5.65904E-03
   508    668.00       5.64740E-03
   509    669.00       5.63578E-03
   510    670.00       5.62417E-03
   511    671.00       5.61258E-03
   512    672.00       5.60100E-03
   513    673.00       5.58943E-03
   514    674.00       5.57788E-03
   515    675.00       5.56635E-03
   516    676.00       5.55482E-03
   517    677.00       5.54332E-03
   518    678.00       5.53183E-03
   519    679.00       5.52035E-03
   520    680.00       5.50889E-03
   521    681.00       5.49744E-03
   522    682.00       5.48601E-03
   523    683.00       5.47459E-03
   524    684.00       5.46319E-03
   525    685.00       5.45181E-03
   526    686.00       5.44044E-03
   527    687.00       5.42908E-03
   528    688.00       5.41774E-03
   529    689.00       5.40641E-03
   530    690.00       5.39510E-03
   531    691.00       5.38381E-03
   532    692.00       5.37253E-03
   533    693.00       5.36126E-03
   534    694.00       5.35001E-03
   535    695.00       5.33877E-03
   536    696.00       5.32756E-03
   537    697.00       5.31635E-03
   538    698.00       5.30516E-03
   539    699.00       5.29399E-03
   540    700.00       5.28283E-03
   541    701.00       5.27169E-03
   542    702.00       5.26056E-03
   543    703.00       5.24945E-03
   544    704.00       5.23836E-03
   545    705.00       5.22727E-03
   546    706.00       5.21621E-03
   547    707.00       5.20516E-03
   548    708.00       5.19412E-03
   549    709.00       5.18310E-03
   550    710.00       5.17210E-03
   551    711.00       5.16111E-03
   552    712.00       5.15014E-03
   553    713.00       5.13918E-03
   554    714.00       5.12824E-03
   555    715.00       5.11732E-03
   556    716.00       5.10641E-03
   557    717.00       5.09551E-03
   558    718.00       5.08464E-03
   559    719.00       5.07377E-03
   560    720.00       5.06293E-03
   561    721.00       5.05210E-03
   562    722.00       5.04128E-03
   563    723.00       5.03048E-03
   564    724.00       5.01970E-03
   565    725.00       5.00893E-03
   566    726.00       4.99817E-03
   567    727.00       4.98744E-03
   568    728.00       4.97672E-03
   569    729.00       4.96601E-03
   570    730.00       4.95532E-03
   571    731.00       4.94465E-03
   572    732.00       4.93399E-03
   573    733.00       4.92335E-03
   574    734.00       4.91273E-03
   575    735.00       4.90212E-03
   576    736.00       4.89152E-03
   577    737.00       4.88095E-03
   578    738.00       4.87038E-03
   579    739.00       4.85984E-03
   580    740.00       4.84931E-03
   581    741.00       4.83879E-03
   582    742.00       4.82830E-03
   583    743.00       4.81782E-03
   584    744.00       4.80735E-03
   585    745.00       4.79690E-03
   586    746.00       4.78646E-03
   587    747.00       4.77605E-03
   588    748.00       4.76564E-03
   589    749.00       4.75526E-03
   590    750.00       4.74489E-03
   591    751.00       4.73453E-03
   592    752.00       4.72420E-03
   593    753.00       4.71387E-03
   594    754.00       4.70357E-03
   595    755.00       4.69328E-03
   596    756.00       4.68301E-03
   597    757.00       4.67275E-03
   598    758.00       4.66251E-03
   599    759.00       4.65228E-03
   600    760.00       4.64207E-03
   601    761.00       4.63188E-03
   602    762.00       4.62170E-03
   603    763.00       4.61154E-03
   604    764.00       4.60140E-03
   605    765.00       4.59127E-03
   606    766.00       4.58116E-03
   607    767.00       4.57106E-03
   608    768.00       4.56098E-03
   609    769.00       4.55092E-03
   610    770.00       4.54087E-03
   611    771.00       4.53084E-03
   612    772.00       4.52083E-03
   613    773.00       4.51083E-03
   614    774.00       4.50084E-03
   615    775.00       4.49088E-03
   616    776.00       4.48093E-03
   617    777.00       4.47099E-03
   618    778.00       4.46107E-03
   619    779.00       4.45117E-03
   620    780.00       4.44129E-03
   621    781.00       4.43142E-03
   622    782.00       4.42156E-03
   623    783.00       4.41173E-03
   624    784.00       4.40191E-03
   625    785.00       4.39210E-03
   626    786.00       4.38231E-03
   627    787.00       4.37254E-03
   628    788.00       4.36278E-03
   629    789.00       4.35304E-03
   630    790.00       4.34332E-03
   631    791.00       4.33361E-03
   632    792.00       4.32392E-03
   633    793.00       4.31425E-03
   634    794.00       4.30459E-03
   635    795.00       4.29494E-03
   636    796.00       4.28532E-03
   637    797.00       4.27571E-03
   638    798.00       4.26611E-03
   639    799.00       4.25653E-03
   640    800.00       4.24697E-03
   641    801.00       4.23743E-03
   642    802.00       4.22790E-03
   643    803.00       4.21838E-03
   644    804.00       4.20889E-03
   645    805.00       4.19940E-03
   646    806.00       4.18994E-03
   647    807.00       4.18049E-03
   648    808.00       4.17106E-03
   649    809.00       4.16164E-03
   650    810.00       4.15224E-03
   651    811.00       4.14286E-03
   652    812.00       4.13349E-03
   653    813.00       4.12414E-03
   654    814.00       4.11480E-03
   655    815.00       4.10548E-03
   656    816.00       4.09618E-03
   657    817.00       4.08689E-03
   658    818.00       4.07762E-03
   659    819.00       4.06836E-03
   660    820.00       4.05913E-03
   661    821.00       4.04990E-03
   662    822.00       4.04070E-03
   663    823.00       4.03151E-03
   664    824.00       4.02233E-03
   665    825.00       4.01317E-03
   666    826.00       4.00403E-03
   667    827.00       3.99490E-03
   668    828.00       3.98579E-03
   669    829.00       3.97670E-03
   670    830.00       3.96762E-03
   671    831.00       3.95856E-03
   672    832.00       3.94951E-03
   673    833.00       3.94049E-03
   674    834.00       3.93147E-03
   675    835.00       3.92247E-03
   676    836.00       3.91349E-03
   677    837.00       3.90453E-03
   678    838.00       3.89558E-03
   679    839.00       3.88664E-03
   680    840.00       3.87773E-03
   681    841.00       3.86882E-03
   682    842.00       3.85994E-03
   683    843.00       3.85107E-03
   684    844.00       3.84221E-03
   685    845.00       3.83338E-03
   686    846.00       3.82455E-03
   687    847.00       3.81575E-03
   688    848.00       3.80696E-03
   689    849.00       3.79819E-03
   690    850.00       3.78943E-03
   691    851.00       3.78069E-03
   692    852.00       3.77196E-03
   693    853.00       3.76325E-03
   694    854.00       3.75455E-03
   695    855.00       3.74588E-03
   696    856.00       3.73721E-03
   697    857.00       3.72857E-03
   698    858.00       3.71993E-03
   699    859.00       3.71132E-03
   700    860.00       3.70272E-03
   701    861.00       3.69414E-03
   702    862.00       3.68557E-03
   703    863.00       3.67702E-03
   704    864.00       3.66848E-03
   705    865.00       3.65996E-03
   706    866.00       3.65145E-03
   707    867.00       3.64297E-03
   708    868.00       3.63449E-03
   709    869.00       3.62604E-03
   710    870.00       3.61759E-03
   711    871.00       3.60917E-03
   712    872.00       3.60076E-03
   713    873.00       3.59236E-03
   714    874.00       3.58399E-03
   715    875.00       3.57562E-03
   716    876.00       3.56728E-03
   717    877.00       3.55894E-03
   718    878.00       3.55063E-03
   719    879.00       3.54233E-03
   720    880.00       3.53404E-03
   721    881.00       3.52577E-03
   722    882.00       3.51752E-03
   723    883.00       3.50928E-03
   724    884.00       3.50106E-03
   725    885.00       3.49285E-03
   726    886.00       3.48466E-03
   727    887.00       3.47648E-03
   728    888.00       3.46832E-03
   729    889.00       3.46018E-03
   730    890.00       3.45205E-03
   731    891.00       3.44393E-03
   732    892.00       3.43583E-03
   733    893.00       3.42775E-03
   734    894.00       3.41968E-03
   735    895.00       3.41163E-03
   736    896.00       3.40360E-03
   737    897.00       3.39557E-03
   738    898.00       3.38757E-03
   739    899.00       3.37958E-03
   740    900.00       3.37160E-03
   741    901.00       3.36364E-03
   742    902.00       3.35570E-03
   743    903.00       3.34777E-03
   744    904.00       3.33986E-03
   745    905.00       3.33196E-03
   746    906.00       3.32407E-03
   747    907.00       3.31621E-03
   748    908.00       3.30835E-03
   749    909.00       3.30052E-03
   750    910.00       3.29269E-03
   751    911.00       3.28489E-03
   752    912.00       3.27709E-03
   753    913.00       3.26932E-03
   754    914.00       3.26156E-03
   755    915.00       3.25381E-03
   756    916.00       3.24608E-03
   757    917.00       3.23836E-03
   758    918.00       3.23066E-03
   759    919.00       3.22298E-03
   760    920.00       3.21530E-03
   761    921.00       3.20765E-03
   762    922.00       3.20001E-03
   763    923.00       3.19238E-03
   764    924.00       3.18477E-03
   765    925.00       3.17718E-03
   766    926.00       3.16960E-03
   767    927.00       3.16203E-03
   768    928.00       3.15448E-03
   769    929.00       3.14694E-03
   770    930.00       3.13942E-03
   771    931.00       3.13192E-03
   772    932.00       3.12443E-03
   773    933.00       3.11695E-03
   774    934.00       3.10949E-03
   775    935.00       3.10204E-03
   776    936.00       3.09461E-03
   777    937.00       3.08720E-03
   778    938.00       3.07979E-03
   779    939.00       3.07241E-03
   780    940.00       3.06503E-03
   781    941.00       3.05768E-03
   782    942.00       3.05033E-03
   783    943.00       3.04301E-03
   784    944.00       3.03569E-03
   785    945.00       3.02839E-03
   786    946.00       3.02111E-03
   787    947.00       3.01384E-03
   788    948.00       3.00659E-03
   789    949.00       2.99935E-03
   790    950.00       2.99212E-03
   791    951.00       2.98491E-03
   792    952.00       2.97771E-03
   793    953.00       2.97053E-03
   794    954.00       2.96336E-03
   795    955.00       2.95621E-03
   796    956.00       2.94907E-03
   797    957.00       2.94195E-03
   798    958.00       2.93484E-03
   799    959.00       2.92775E-03
   800    960.00       2.92067E-03
   801    961.00       2.91360E-03
   802    962.00       2.90655E-03
   803    963.00       2.89951E-03
   804    964.00       2.89249E-03
   805    965.00       2.88548E-03
   806    966.00       2.87849E-03
   807    967.00       2.87151E-03
   808    968.00       2.86454E-03
   809    969.00       2.85759E-03
   810    970.00       2.85066E-03
   811    971.00       2.84373E-03
   812    972.00       2.83682E-03
   813    973.00       2.82993E-03
   814    974.00       2.82305E-03
   815    975.00       2.81619E-03
   816    976.00       2.80933E-03
   817    977.00       2.80250E-03
   818    978.00       2.79567E-03
   819    979.00       2.78887E-03
   820    980.00       2.78207E-03
   821    981.00       2.77529E-03
   822    982.00       2.76852E-03
   823    983.00       2.76177E-03
   824    984.00       2.75503E-03
   825    985.00       2.74831E-03
   826    986.00       2.74160E-03
   827    987.00       2.73490E-03
   828    988.00       2.72822E-03
   829    989.00       2.72155E-03
   830    990.00       2.71489E-03
   831    991.00       2.70825E-03
   832    992.00       2.70163E-03
   833    993.00       2.69501E-03
   834    994.00       2.68841E-03
   835    995.00       2.68183E-03
   836    996.00       2.67526E-03
   837    997.00       2.66870E-03
   838    998.00       2.66215E-03
   839    999.00       2.65562E-03
   840    1000.0       2.64911E-03
   841    1001.0       2.64260E-03
   842    1002.0       2.63611E-03
   843    1003.0       2.62964E-03
   844    1004.0       2.62318E-03
   845    1005.0       2.61673E-03
   846    1006.0       2.61029E-03
   847    1007.0       2.60387E-03
   848    1008.0       2.59746E-03
   849    1009.0       2.59107E-03
   850    1010.0       2.58469E-03
   851    1011.0       2.57832E-03
   852    1012.0       2.57197E-03
   853    1013.0       2.56563E-03
   854    1014.0       2.55930E-03
   855    1015.0       2.55299E-03
   856    1016.0       2.54669E-03
   857    1017.0       2.54041E-03
   858    1018.0       2.53413E-03
   859    1019.0       2.52787E-03
   860    1020.0       2.52163E-03
   861    1021.0       2.51539E-03
   862    1022.0       2.50918E-03
   863    1023.0       2.50297E-03
   864    1024.0       2.49678E-03
   865    1025.0       2.49060E-03
   866    1026.0       2.48443E-03
   867    1027.0       2.47828E-03
   868    1028.0       2.47214E-03
   869    1029.0       2.46601E-03
   870    1030.0       2.45990E-03
   871    1031.0       2.45380E-03
   872    1032.0       2.44771E-03
   873    1033.0       2.44164E-03
   874    1034.0       2.43558E-03
   875    1035.0       2.42953E-03
   876    1036.0       2.42349E-03
   877    1037.0       2.41747E-03
   878    1038.0       2.41146E-03
   879    1039.0       2.40547E-03
   880    1040.0       2.39948E-03
   881    1041.0       2.39351E-03
   882    1042.0       2.38756E-03
   883    1043.0       2.38161E-03
   884    1044.0       2.37568E-03
   885    1045.0       2.36976E-03
   886    1046.0       2.36386E-03
   887    1047.0       2.35797E-03
   888    1048.0       2.35209E-03
   889    1049.0       2.34622E-03
   890    1050.0       2.34037E-03
   891    1051.0       2.33453E-03
   892    1052.0       2.32870E-03
   893    1053.0       2.32288E-03
   894    1054.0       2.31708E-03
   895    1055.0       2.31129E-03
   896    1056.0       2.30551E-03
   897    1057.0       2.29975E-03
   898    1058.0       2.29399E-03
   899    1059.0       2.28825E-03
   900    1060.0       2.28253E-03
   901    1061.0       2.27681E-03
   902    1062.0       2.27111E-03
   903    1063.0       2.26542E-03
   904    1064.0       2.25974E-03
   905    1065.0       2.25408E-03
   906    1066.0       2.24842E-03
   907    1067.0       2.24278E-03
   908    1068.0       2.23716E-03
   909    1069.0       2.23154E-03
   910    1070.0       2.22594E-03
   911    1071.0       2.22035E-03
   912    1072.0       2.21477E-03
   913    1073.0       2.20921E-03
   914    1074.0       2.20365E-03
   915    1075.0       2.19811E-03
   916    1076.0       2.19258E-03
   917    1077.0       2.18707E-03
   918    1078.0       2.18156E-03
   919    1079.0       2.17607E-03
   920    1080.0       2.17059E-03
   921    1081.0       2.16512E-03
   922    1082.0       2.15967E-03
   923    1083.0       2.15423E-03
   924    1084.0       2.14879E-03
   925    1085.0       2.14338E-03
   926    1086.0       2.13797E-03
   927    1087.0       2.13257E-03
   928    1088.0       2.12719E-03
   929    1089.0       2.12182E-03
   930    1090.0       2.11646E-03
   931    1091.0       2.11111E-03
   932    1092.0       2.10578E-03
   933    1093.0       2.10046E-03
   934    1094.0       2.09514E-03
   935    1095.0       2.08985E-03
   936    1096.0       2.08456E-03
   937    1097.0       2.07928E-03
   938    1098.0       2.07402E-03
   939    1099.0       2.06877E-03
   940    1100.0       2.06353E-03
   941    1101.0       2.05830E-03
   942    1102.0       2.05308E-03
   943    1103.0       2.04788E-03
   944    1104.0       2.04268E-03
   945    1105.0       2.03750E-03
   946    1106.0       2.03233E-03
   947    1107.0       2.02717E-03
   948    1108.0       2.02203E-03
   949    1109.0       2.01689E-03
   950    1110.0       2.01177E-03
   951    1111.0       2.00666E-03
   952    1112.0       2.00156E-03
   953    1113.0       1.99647E-03
   954    1114.0       1.99139E-03
   955    1115.0       1.98633E-03
   956    1116.0       1.98127E-03
   957    1117.0       1.97623E-03
   958    1118.0       1.97120E-03
   959    1119.0       1.96618E-03
   960    1120.0       1.96117E-03
   961    1121.0       1.95617E-03
   962    1122.0       1.95119E-03
   963    1123.0       1.94621E-03
   964    1124.0       1.94125E-03
   965    1125.0       1.93630E-03
   966    1126.0       1.93136E-03
   967    1127.0       1.92643E-03
   968    1128.0       1.92151E-03
   969    1129.0       1.91660E-03
   970    1130.0       1.91171E-03
   971    1131.0       1.90682E-03
   972    1132.0       1.90195E-03
   973    1133.0       1.89709E-03
   974    1134.0       1.89224E-03
   975    1135.0       1.88740E-03
   976    1136.0       1.88257E-03
   977    1137.0       1.87775E-03
   978    1138.0       1.87295E-03
   979    1139.0       1.86815E-03
   980    1140.0       1.86337E-03
   981    1141.0       1.85859E-03
   982    1142.0       1.85383E-03
   983    1143.0       1.84908E-03
   984    1144.0       1.84434E-03
   985    1145.0       1.83961E-03
   986    1146.0       1.83489E-03
   987    1147.0       1.83018E-03
   988    1148.0       1.82548E-03
   989    1149.0       1.82080E-03
   990    1150.0       1.81612E-03
   991    1151.0       1.81146E-03
   992    1152.0       1.80680E-03
   993    1153.0       1.80216E-03
   994    1154.0       1.79753E-03
   995    1155.0       1.79291E-03
   996    1156.0       1.78830E-03
   997    1157.0       1.78370E-03
   998    1158.0       1.77911E-03
   999    1159.0       1.77453E-03
  1000    1160.0       1.76996E-03
  1001    1161.0       1.76540E-03
  1002    1162.0       1.76085E-03
  1003    1163.0       1.75632E-03
  1004    1164.0       1.75179E-03
  1005    1165.0       1.74727E-03
  1006    1166.0       1.74277E-03
  1007    1167.0       1.73827E-03
  1008    1168.0       1.73379E-03
  1009    1169.0       1.72932E-03
  1010    1170.0       1.72485E-03
  1011    1171.0       1.72040E-03
  1012    1172.0       1.71596E-03
  1013    1173.0       1.71153E-03
  1014    1174.0       1.70710E-03
  1015    1175.0       1.70269E-03
  1016    1176.0       1.69829E-03
  1017    1177.0       1.69390E-03
  1018    1178.0       1.68952E-03
  1019    1179.0       1.68515E-03
  1020    1180.0       1.68079E-03
  1021    1181.0       1.67644E-03
  1022    1182.0       1.67210E-03
  1023    1183.0       1.66777E-03
  1024    1184.0       1.66345E-03
  1025    1185.0       1.65914E-03
  1026    1186.0       1.65484E-03
  1027    1187.0       1.65055E-03
  1028    1188.0       1.64627E-03
  1029    1189.0       1.64200E-03
  1030    1190.0       1.63774E-03
  1031    1191.0       1.63350E-03
  1032    1192.0       1.62926E-03
  1033    1193.0       1.62503E-03
  1034    1194.0       1.62081E-03
  1035    1195.0       1.61660E-03
  1036    1196.0       1.61240E-03
  1037    1197.0       1.60821E-03
  1038    1198.0       1.60403E-03
  1039    1199.0       1.59986E-03
  1040    1200.0       1.59570E-03
  1041    1201.0       1.59155E-03
  1042    1202.0       1.58741E-03
  1043    1203.0       1.58328E-03
  1044    1204.0       1.57916E-03
  1045    1205.0       1.57505E-03
  1046    1206.0       1.57095E-03
  1047    1207.0       1.56686E-03
  1048    1208.0       1.56278E-03
  1049    1209.0       1.55871E-03
  1050    1210.0       1.55464E-03
  1051    1211.0       1.55059E-03
  1052    1212.0       1.54655E-03
  1053    1213.0       1.54251E-03
  1054    1214.0       1.53849E-03
  1055    1215.0       1.53448E-03
  1056    1216.0       1.53047E-03
  1057    1217.0       1.52648E-03
  1058    1218.0       1.52249E-03
  1059    1219.0       1.51851E-03
  1060    1220.0       1.51455E-03
  1061    1221.0       1.51059E-03
  1062    1222.0       1.50664E-03
  1063    1223.0       1.50270E-03
  1064    1224.0       1.49877E-03
  1065    1225.0       1.49486E-03
  1066    1226.0       1.49095E-03
  1067    1227.0       1.48704E-03
  1068    1228.0       1.48315E-03
  1069    1229.0       1.47927E-03
  1070    1230.0       1.47540E-03
  1071    1231.0       1.47153E-03
  1072    1232.0       1.46768E-03
  1073    1233.0       1.46383E-03
  1074    1234.0       1.46000E-03
  1075    1235.0       1.45617E-03
  1076    1236.0       1.45235E-03
  1077    1237.0       1.44855E-03
  1078    1238.0       1.44475E-03
  1079    1239.0       1.44096E-03
  1080    1240.0       1.43718E-03
  1081    1241.0       1.43340E-03
  1082    1242.0       1.42964E-03
  1083    1243.0       1.42589E-03
  1084    1244.0       1.42214E-03
  1085    1245.0       1.41841E-03
  1086    1246.0       1.41468E-03
  1087    1247.0       1.41096E-03
  1088    1248.0       1.40725E-03
  1089    1249.0       1.40355E-03
  1090    1250.0       1.39986E-03
  1091    1251.0       1.39618E-03
  1092    1252.0       1.39251E-03
  1093    1253.0       1.38884E-03
  1094    1254.0       1.38519E-03
  1095    1255.0       1.38154E-03
  1096    1256.0       1.37790E-03
  1097    1257.0       1.37427E-03
  1098    1258.0       1.37065E-03
  1099    1259.0       1.36704E-03
  1100    1260.0       1.36344E-03
  1101    1261.0       1.35984E-03
  1102    1262.0       1.35626E-03
  1103    1263.0       1.35268E-03
  1104    1264.0       1.34911E-03
  1105    1265.0       1.34555E-03
  1106    1266.0       1.34200E-03
  1107    1267.0       1.33846E-03
  1108    1268.0       1.33493E-03
  1109    1269.0       1.33140E-03
  1110    1270.0       1.32789E-03
  1111    1271.0       1.32438E-03
  1112    1272.0       1.32088E-03
  1113    1273.0       1.31739E-03
  1114    1274.0       1.31391E-03
  1115    1275.0       1.31043E-03
  1116    1276.0       1.30697E-03
  1117    1277.0       1.30351E-03
  1118    1278.0       1.30006E-03
  1119    1279.0       1.29662E-03
  1120    1280.0       1.29319E-03
  1121    1281.0       1.28977E-03
  1122    1282.0       1.28635E-03
  1123    1283.0       1.28295E-03
  1124    1284.0       1.27955E-03
  1125    1285.0       1.27616E-03
  1126    1286.0       1.27278E-03
  1127    1287.0       1.26940E-03
  1128    1288.0       1.26604E-03
  1129    1289.0       1.26268E-03
  1130    1290.0       1.25933E-03
  1131    1291.0       1.25599E-03
  1132    1292.0       1.25266E-03
  1133    1293.0       1.24934E-03
  1134    1294.0       1.24602E-03
  1135    1295.0       1.24271E-03
  1136    1296.0       1.23941E-03
  1137    1297.0       1.23612E-03
  1138    1298.0       1.23284E-03
  1139    1299.0       1.22956E-03
  1140    1300.0       1.22629E-03
  1141    1301.0       1.22303E-03
  1142    1302.0       1.21978E-03
  1143    1303.0       1.21654E-03
  1144    1304.0       1.21330E-03
  1145    1305.0       1.21008E-03
  1146    1306.0       1.20686E-03
  1147    1307.0       1.20365E-03
  1148    1308.0       1.20044E-03
  1149    1309.0       1.19725E-03
  1150    1310.0       1.19406E-03
  1151    1311.0       1.19088E-03
  1152    1312.0       1.18771E-03
  1153    1313.0       1.18454E-03
  1154    1314.0       1.18139E-03
  1155    1315.0       1.17824E-03
  1156    1316.0       1.17510E-03
  1157    1317.0       1.17196E-03
  1158    1318.0       1.16884E-03
  1159    1319.0       1.16572E-03
  1160    1320.0       1.16261E-03
  1161    1321.0       1.15951E-03
  1162    1322.0       1.15641E-03
  1163    1323.0       1.15333E-03
  1164    1324.0       1.15025E-03
  1165    1325.0       1.14718E-03
  1166    1326.0       1.14411E-03
  1167    1327.0       1.14106E-03
  1168    1328.0       1.13801E-03
  1169    1329.0       1.13497E-03
  1170    1330.0       1.13193E-03
  1171    1331.0       1.12891E-03
  1172    1332.0       1.12589E-03
  1173    1333.0       1.12288E-03
  1174    1334.0       1.11987E-03
  1175    1335.0       1.11688E-03
  1176    1336.0       1.11389E-03
  1177    1337.0       1.11091E-03
  1178    1338.0       1.10793E-03
  1179    1339.0       1.10497E-03
  1180    1340.0       1.10201E-03
  1181    1341.0       1.09905E-03
  1182    1342.0       1.09611E-03
  1183    1343.0       1.09317E-03
  1184    1344.0       1.09024E-03
  1185    1345.0       1.08732E-03
  1186    1346.0       1.08441E-03
  1187    1347.0       1.08150E-03
  1188    1348.0       1.07860E-03
  1189    1349.0       1.07570E-03
  1190    1350.0       1.07282E-03
  1191    1351.0       1.06994E-03
  1192    1352.0       1.06707E-03
  1193    1353.0       1.06420E-03
  1194    1354.0       1.06135E-03
  1195    1355.0       1.05850E-03
  1196    1356.0       1.05565E-03
  1197    1357.0       1.05282E-03
  1198    1358.0       1.04999E-03
  1199    1359.0       1.04717E-03
  1200    1360.0       1.04435E-03
  1201    1361.0       1.04154E-03
  1202    1362.0       1.03874E-03
  1203    1363.0       1.03595E-03
  1204    1364.0       1.03316E-03
  1205    1365.0       1.03039E-03
  1206    1366.0       1.02761E-03
  1207    1367.0       1.02485E-03
  1208    1368.0       1.02209E-03
  1209    1369.0       1.01934E-03
  1210    1370.0       1.01659E-03
  1211    1371.0       1.01385E-03
  1212    1372.0       1.01112E-03
  1213    1373.0       1.00840E-03
  1214    1374.0       1.00568E-03
  1215    1375.0       1.00297E-03
  1216    1376.0       1.00027E-03
  1217    1377.0       9.97571E-04
  1218    1378.0       9.94881E-04
  1219    1379.0       9.92198E-04
  1220    1380.0       9.89522E-04
  1221    1381.0       9.86852E-04
  1222    1382.0       9.84189E-04
  1223    1383.0       9.81533E-04
  1224    1384.0       9.78884E-04
  1225    1385.0       9.76241E-04
  1226    1386.0       9.73605E-04
  1227    1387.0       9.70975E-04
  1228    1388.0       9.68352E-04
  1229    1389.0       9.65736E-04
  1230    1390.0       9.63127E-04
  1231    1391.0       9.60524E-04
  1232    1392.0       9.57928E-04
  1233    1393.0       9.55338E-04
  1234    1394.0       9.52754E-04
  1235    1395.0       9.50178E-04
  1236    1396.0       9.47608E-04
  1237    1397.0       9.45044E-04
  1238    1398.0       9.42487E-04
  1239    1399.0       9.39936E-04
  1240    1400.0       9.37392E-04
  1241    1401.0       9.34855E-04
  1242    1402.0       9.32324E-04
  1243    1403.0       9.29799E-04
  1244    1404.0       9.27280E-04
  1245    1405.0       9.24768E-04
  1246    1406.0       9.22262E-04
  1247    1407.0       9.19763E-04
  1248    1408.0       9.17270E-04
  1249    1409.0       9.14784E-04
  1250    1410.0       9.12303E-04
  1251    1411.0       9.09830E-04
  1252    1412.0       9.07362E-04
  1253    1413.0       9.04900E-04
  1254    1414.0       9.02446E-04
  1255    1415.0       8.99997E-04
  1256    1416.0       8.97554E-04
  1257    1417.0       8.95118E-04
  1258    1418.0       8.92688E-04
  1259    1419.0       8.90264E-04
  1260    1420.0       8.87846E-04
  1261    1421.0       8.85435E-04
  1262    1422.0       8.83029E-04
  1263    1423.0       8.80630E-04
  1264    1424.0       8.78237E-04
  1265    1425.0       8.75850E-04
  1266    1426.0       8.73469E-04
  1267    1427.0       8.71094E-04
  1268    1428.0       8.68725E-04
  1269    1429.0       8.66362E-04
  1270    1430.0       8.64006E-04
  1271    1431.0       8.61655E-04
  1272    1432.0       8.59310E-04
  1273    1433.0       8.56972E-04
  1274    1434.0       8.54639E-04
  1275    1435.0       8.52312E-04
  1276    1436.0       8.49992E-04
  1277    1437.0       8.47677E-04
  1278    1438.0       8.45368E-04
  1279    1439.0       8.43065E-04
  1280    1440.0       8.40769E-04
  1281    1441.0       8.38477E-04
  1282    1442.0       8.36192E-04
  1283    1443.0       8.33913E-04
  1284    1444.0       8.31640E-04
  1285    1445.0       8.29372E-04
  1286    1446.0       8.27110E-04
  1287    1447.0       8.24854E-04
  1288    1448.0       8.22604E-04
  1289    1449.0       8.20359E-04
  1290    1450.0       8.18121E-04
  1291    1451.0       8.15888E-04
  1292    1452.0       8.13661E-04
  1293    1453.0       8.11439E-04
  1294    1454.0       8.09224E-04
  1295    1455.0       8.07014E-04
  1296    1456.0       8.04809E-04
  1297    1457.0       8.02611E-04
  1298    1458.0       8.00418E-04
  1299    1459.0       7.98231E-04
  1300    1460.0       7.96049E-04
  1301    1461.0       7.93873E-04
  1302    1462.0       7.91703E-04
  1303    1463.0       7.89538E-04
  1304    1464.0       7.87379E-04
  1305    1465.0       7.85225E-04
  1306    1466.0       7.83077E-04
  1307    1467.0       7.80934E-04
  1308    1468.0       7.78797E-04
  1309    1469.0       7.76666E-04
  1310    1470.0       7.74540E-04
  1311    1471.0       7.72420E-04
  1312    1472.0       7.70305E-04
  1313    1473.0       7.68195E-04
  1314    1474.0       7.66091E-04
  1315    1475.0       7.63992E-04
  1316    1476.0       7.61899E-04
  1317    1477.0       7.59811E-04
  1318    1478.0       7.57729E-04
  1319    1479.0       7.55652E-04
  1320    1480.0       7.53581E-04
  1321    1481.0       7.51515E-04
  1322    1482.0       7.49454E-04
  1323    1483.0       7.47398E-04
  1324    1484.0       7.45348E-04
  1325    1485.0       7.43303E-04
  1326    1486.0       7.41264E-04
  1327    1487.0       7.39229E-04
  1328    1488.0       7.37201E-04
  1329    1489.0       7.35177E-04
  1330    1490.0       7.33159E-04
  1331    1491.0       7.31145E-04
  1332    1492.0       7.29138E-04
  1333    1493.0       7.27135E-04
  1334    1494.0       7.25137E-04
  1335    1495.0       7.23145E-04
  1336    1496.0       7.21158E-04
  1337    1497.0       7.19176E-04
  1338    1498.0       7.17199E-04
  1339    1499.0       7.15228E-04
  1340    1500.0       7.13261E-04
