  STEP   TOTAL TIME             LOCATION OF OBSERVATION POINTS (K,I,J)
                      1   1  51
     1    1.0000       1.29854E-23
     2    2.0000       3.08253E-22
     3    3.0000       3.76673E-21
     4    4.0000       3.15692E-20
     5    5.0000       2.04020E-19
     6    6.0000       1.08380E-18
     7    7.0000       4.92686E-18
     8    8.0000       1.97027E-17
     9    9.0000       7.07198E-17
    10    10.000       2.31332E-16
    11    11.000       6.97901E-16
    12    12.000       1.96057E-15
    13    13.000       5.16904E-15
    14    14.000       1.28742E-14
    15    15.000       3.04591E-14
    16    16.000       6.87777E-14
    17    17.000       1.48828E-13
    18    18.000       3.09721E-13
    19    19.000       6.21809E-13
    20    20.000       1.20765E-12
    21    21.000       2.27449E-12
    22    22.000       4.16329E-12
    23    23.000       7.42080E-12
    24    24.000       1.29032E-11
    25    25.000       2.19214E-11
    26    26.000       3.64421E-11
    27    27.000       5.93573E-11
    28    28.000       9.48445E-11
    29    29.000       1.48833E-10
    30    30.000       2.29607E-10
    31    31.000       3.48558E-10
    32    32.000       5.21138E-10
    33    33.000       7.68012E-10
    34    34.000       1.11647E-09
    35    35.000       1.60212E-09
    36    36.000       2.27086E-09
    37    37.000       3.18127E-09
    38    38.000       4.40726E-09
    39    39.000       6.04123E-09
    40    40.000       8.19761E-09
    41    41.000       1.10168E-08
    42    42.000       1.46697E-08
    43    43.000       1.93625E-08
    44    44.000       2.53422E-08
    45    45.000       3.29025E-08
    46    46.000       4.23901E-08
    47    47.000       5.42114E-08
    48    48.000       6.88402E-08
    49    49.000       8.68250E-08
    50    50.000       1.08797E-07
    51    51.000       1.35479E-07
    52    52.000       1.67694E-07
    53    53.000       2.06374E-07
    54    54.000       2.52569E-07
    55    55.000       3.07457E-07
    56    56.000       3.72354E-07
    57    57.000       4.48722E-07
    58    58.000       5.38180E-07
    59    59.000       6.42513E-07
    60    60.000       7.63681E-07
    61    61.000       9.03827E-07
    62    62.000       1.06529E-06
    63    63.000       1.25061E-06
    64    64.000       1.46254E-06
    65    65.000       1.70404E-06
    66    66.000       1.97831E-06
    67    67.000       2.28877E-06
    68    68.000       2.63909E-06
    69    69.000       3.03317E-06
    70    70.000       3.47517E-06
    71    71.000       3.96951E-06
    72    72.000       4.52084E-06
    73    73.000       5.13410E-06
    74    74.000       5.81448E-06
    75    75.000       6.56742E-06
    76    76.000       7.39866E-06
    77    77.000       8.31417E-06
    78    78.000       9.32020E-06
    79    79.000       1.04233E-05
    80    80.000       1.16301E-05
    81    81.000       1.29478E-05
    82    82.000       1.43837E-05
    83    83.000       1.59451E-05
    84    84.000       1.76400E-05
    85    85.000       1.94764E-05
    86    86.000       2.14625E-05
    87    87.000       2.36067E-05
    88    88.000       2.59179E-05
    89    89.000       2.84048E-05
    90    90.000       3.10767E-05
    91    91.000       3.39429E-05
    92    92.000       3.70128E-05
    93    93.000       4.02961E-05
    94    94.000       4.38027E-05
    95    95.000       4.75425E-05
    96    96.000       5.15259E-05
    97    97.000       5.57629E-05
    98    98.000       6.02642E-05
    99    99.000       6.50401E-05
   100    100.00       7.01013E-05
   101    101.00       7.54586E-05
   102    102.00       8.11228E-05
   103    103.00       8.71048E-05
   104    104.00       9.34155E-05
   105    105.00       1.00066E-04
   106    106.00       1.07067E-04
   107    107.00       1.14430E-04
   108    108.00       1.22166E-04
   109    109.00       1.30286E-04
   110    110.00       1.38801E-04
   111    111.00       1.47722E-04
   112    112.00       1.57060E-04
   113    113.00       1.66826E-04
   114    114.00       1.77032E-04
   115    115.00       1.87687E-04
   116    116.00       1.98804E-04
   117    117.00       2.10391E-04
   118    118.00       2.22461E-04
   119    119.00       2.35024E-04
   120    120.00       2.48090E-04
   121    121.00       2.61670E-04
   122    122.00       2.75773E-04
   123    123.00       2.90411E-04
   124    124.00       3.05592E-04
   125    125.00       3.21327E-04
   126    126.00       3.37625E-04
   127    127.00       3.54496E-04
   128    128.00       3.71950E-04
   129    129.00       3.89994E-04
   130    130.00       4.08640E-04
   131    131.00       4.27894E-04
   132    132.00       4.47767E-04
   133    133.00       4.68265E-04
   134    134.00       4.89399E-04
   135    135.00       5.11175E-04
   136    136.00       5.33601E-04
   137    137.00       5.56686E-04
   138    138.00       5.80436E-04
   139    139.00       6.04859E-04
   140    140.00       6.29962E-04
   141    141.00       6.55752E-04
   142    142.00       6.82235E-04
   143    143.00       7.09417E-04
   144    144.00       7.37305E-04
   145    145.00       7.65905E-04
   146    146.00       7.95222E-04
   147    147.00       8.25262E-04
   148    148.00       8.56029E-04
   149    149.00       8.87530E-04
   150    150.00       9.19768E-04
   151    151.00       9.52748E-04
   152    152.00       9.86475E-04
   153    153.00       1.02095E-03
   154    154.00       1.05618E-03
   155    155.00       1.09217E-03
   156    156.00       1.12892E-03
   157    157.00       1.16644E-03
   158    158.00       1.20472E-03
   159    159.00       1.24377E-03
   160    160.00       1.28360E-03
     1    161.00       1.32420E-03
     2    162.00       1.36558E-03
     3    163.00       1.40773E-03
     4    164.00       1.45067E-03
     5    165.00       1.49438E-03
     6    166.00       1.53888E-03
     7    167.00       1.58417E-03
     8    168.00       1.63023E-03
     9    169.00       1.67709E-03
    10    170.00       1.72472E-03
    11    171.00       1.77315E-03
    12    172.00       1.82235E-03
    13    173.00       1.87235E-03
    14    174.00       1.92312E-03
    15    175.00       1.97469E-03
    16    176.00       2.02703E-03
    17    177.00       2.08015E-03
    18    178.00       2.13406E-03
    19    179.00       2.18875E-03
    20    180.00       2.24421E-03
    21    181.00       2.30045E-03
    22    182.00       2.35746E-03
    23    183.00       2.41525E-03
    24    184.00       2.47380E-03
    25    185.00       2.53312E-03
    26    186.00       2.59321E-03
    27    187.00       2.65406E-03
    28    188.00       2.71566E-03
    29    189.00       2.77802E-03
    30    190.00       2.84114E-03
    31    191.00       2.90500E-03
    32    192.00       2.96961E-03
    33    193.00       3.03497E-03
    34    194.00       3.10106E-03
    35    195.00       3.16789E-03
    36    196.00       3.23544E-03
    37    197.00       3.30372E-03
    38    198.00       3.37273E-03
    39    199.00       3.44245E-03
    40    200.00       3.51289E-03
    41    201.00       3.58403E-03
    42    202.00       3.65588E-03
    43    203.00       3.72843E-03
    44    204.00       3.80167E-03
    45    205.00       3.87560E-03
    46    206.00       3.95021E-03
    47    207.00       4.02550E-03
    48    208.00       4.10146E-03
    49    209.00       4.17808E-03
    50    210.00       4.25537E-03
    51    211.00       4.33331E-03
    52    212.00       4.41189E-03
    53    213.00       4.49112E-03
    54    214.00       4.57098E-03
    55    215.00       4.65147E-03
    56    216.00       4.73257E-03
    57    217.00       4.81429E-03
    58    218.00       4.89661E-03
    59    219.00       4.97953E-03
    60    220.00       5.06304E-03
    61    221.00       5.14713E-03
    62    222.00       5.23179E-03
    63    223.00       5.31701E-03
    64    224.00       5.40279E-03
    65    225.00       5.48912E-03
    66    226.00       5.57597E-03
    67    227.00       5.66336E-03
    68    228.00       5.75125E-03
    69    229.00       5.83966E-03
    70    230.00       5.92856E-03
    71    231.00       6.01794E-03
    72    232.00       6.10779E-03
    73    233.00       6.19810E-03
    74    234.00       6.28887E-03
    75    235.00       6.38006E-03
    76    236.00       6.47169E-03
    77    237.00       6.56372E-03
    78    238.00       6.65616E-03
    79    239.00       6.74898E-03
    80    240.00       6.84217E-03
    81    241.00       6.93572E-03
    82    242.00       7.02961E-03
    83    243.00       7.12383E-03
    84    244.00       7.21837E-03
    85    245.00       7.31322E-03
    86    246.00       7.40834E-03
    87    247.00       7.50374E-03
    88    248.00       7.59939E-03
    89    249.00       7.69528E-03
    90    250.00       7.79140E-03
    91    251.00       7.88772E-03
    92    252.00       7.98423E-03
    93    253.00       8.08092E-03
    94    254.00       8.17777E-03
    95    255.00       8.27475E-03
    96    256.00       8.37187E-03
    97    257.00       8.46909E-03
    98    258.00       8.56640E-03
    99    259.00       8.66379E-03
   100    260.00       8.76123E-03
   101    261.00       8.85871E-03
   102    262.00       8.95621E-03
   103    263.00       9.05372E-03
   104    264.00       9.15121E-03
   105    265.00       9.24867E-03
   106    266.00       9.34609E-03
   107    267.00       9.44343E-03
   108    268.00       9.54070E-03
   109    269.00       9.63786E-03
   110    270.00       9.73491E-03
   111    271.00       9.83182E-03
   112    272.00       9.92857E-03
   113    273.00       1.00252E-02
   114    274.00       1.01216E-02
   115    275.00       1.02178E-02
   116    276.00       1.03137E-02
   117    277.00       1.04095E-02
   118    278.00       1.05049E-02
   119    279.00       1.06001E-02
   120    280.00       1.06951E-02
   121    281.00       1.07897E-02
   122    282.00       1.08840E-02
   123    283.00       1.09779E-02
   124    284.00       1.10715E-02
   125    285.00       1.11647E-02
   126    286.00       1.12576E-02
   127    287.00       1.13500E-02
   128    288.00       1.14421E-02
   129    289.00       1.15337E-02
   130    290.00       1.16248E-02
   131    291.00       1.17155E-02
   132    292.00       1.18057E-02
   133    293.00       1.18955E-02
   134    294.00       1.19847E-02
   135    295.00       1.20734E-02
   136    296.00       1.21616E-02
   137    297.00       1.22492E-02
   138    298.00       1.23363E-02
   139    299.00       1.24229E-02
   140    300.00       1.25088E-02
   141    301.00       1.25942E-02
   142    302.00       1.26789E-02
   143    303.00       1.27631E-02
   144    304.00       1.28466E-02
   145    305.00       1.29294E-02
   146    306.00       1.30117E-02
   147    307.00       1.30932E-02
   148    308.00       1.31741E-02
   149    309.00       1.32544E-02
   150    310.00       1.33339E-02
   151    311.00       1.34127E-02
   152    312.00       1.34909E-02
   153    313.00       1.35683E-02
   154    314.00       1.36450E-02
   155    315.00       1.37209E-02
   156    316.00       1.37961E-02
   157    317.00       1.38706E-02
   158    318.00       1.39443E-02
   159    319.00       1.40173E-02
   160    320.00       1.40895E-02
   161    321.00       1.41609E-02
   162    322.00       1.42315E-02
   163    323.00       1.43013E-02
   164    324.00       1.43704E-02
   165    325.00       1.44386E-02
   166    326.00       1.45061E-02
   167    327.00       1.45727E-02
   168    328.00       1.46385E-02
   169    329.00       1.47035E-02
   170    330.00       1.47677E-02
   171    331.00       1.48310E-02
   172    332.00       1.48935E-02
   173    333.00       1.49552E-02
   174    334.00       1.50160E-02
   175    335.00       1.50760E-02
   176    336.00       1.51352E-02
   177    337.00       1.51935E-02
   178    338.00       1.52509E-02
   179    339.00       1.53075E-02
   180    340.00       1.53633E-02
   181    341.00       1.54182E-02
   182    342.00       1.54722E-02
   183    343.00       1.55254E-02
   184    344.00       1.55777E-02
   185    345.00       1.56291E-02
   186    346.00       1.56797E-02
   187    347.00       1.57295E-02
   188    348.00       1.57783E-02
   189    349.00       1.58263E-02
   190    350.00       1.58735E-02
   191    351.00       1.59197E-02
   192    352.00       1.59651E-02
   193    353.00       1.60097E-02
   194    354.00       1.60534E-02
   195    355.00       1.60962E-02
   196    356.00       1.61382E-02
   197    357.00       1.61793E-02
   198    358.00       1.62195E-02
   199    359.00       1.62589E-02
   200    360.00       1.62975E-02
   201    361.00       1.63352E-02
   202    362.00       1.63720E-02
   203    363.00       1.64080E-02
   204    364.00       1.64431E-02
   205    365.00       1.64774E-02
   206    366.00       1.65109E-02
   207    367.00       1.65435E-02
   208    368.00       1.65753E-02
   209    369.00       1.66063E-02
   210    370.00       1.66364E-02
   211    371.00       1.66657E-02
   212    372.00       1.66942E-02
   213    373.00       1.67218E-02
   214    374.00       1.67487E-02
   215    375.00       1.67747E-02
   216    376.00       1.67999E-02
   217    377.00       1.68243E-02
   218    378.00       1.68479E-02
   219    379.00       1.68707E-02
   220    380.00       1.68927E-02
   221    381.00       1.69140E-02
   222    382.00       1.69344E-02
   223    383.00       1.69541E-02
   224    384.00       1.69729E-02
   225    385.00       1.69910E-02
   226    386.00       1.70084E-02
   227    387.00       1.70250E-02
   228    388.00       1.70408E-02
   229    389.00       1.70558E-02
   230    390.00       1.70701E-02
   231    391.00       1.70837E-02
   232    392.00       1.70965E-02
   233    393.00       1.71086E-02
   234    394.00       1.71200E-02
   235    395.00       1.71306E-02
   236    396.00       1.71405E-02
   237    397.00       1.71497E-02
   238    398.00       1.71582E-02
   239    399.00       1.71660E-02
   240    400.00       1.71731E-02
   241    401.00       1.71795E-02
   242    402.00       1.71852E-02
   243    403.00       1.71902E-02
   244    404.00       1.71945E-02
   245    405.00       1.71982E-02
   246    406.00       1.72012E-02
   247    407.00       1.72035E-02
   248    408.00       1.72052E-02
   249    409.00       1.72062E-02
   250    410.00       1.72066E-02
   251    411.00       1.72064E-02
   252    412.00       1.72055E-02
   253    413.00       1.72040E-02
   254    414.00       1.72018E-02
   255    415.00       1.71990E-02
   256    416.00       1.71957E-02
   257    417.00       1.71917E-02
   258    418.00       1.71871E-02
   259    419.00       1.71819E-02
   260    420.00       1.71762E-02
   261    421.00       1.71698E-02
   262    422.00       1.71629E-02
   263    423.00       1.71554E-02
   264    424.00       1.71473E-02
   265    425.00       1.71387E-02
   266    426.00       1.71295E-02
   267    427.00       1.71197E-02
   268    428.00       1.71095E-02
   269    429.00       1.70986E-02
   270    430.00       1.70873E-02
   271    431.00       1.70754E-02
   272    432.00       1.70630E-02
   273    433.00       1.70501E-02
   274    434.00       1.70367E-02
   275    435.00       1.70227E-02
   276    436.00       1.70083E-02
   277    437.00       1.69934E-02
   278    438.00       1.69780E-02
   279    439.00       1.69621E-02
   280    440.00       1.69457E-02
   281    441.00       1.69288E-02
   282    442.00       1.69115E-02
   283    443.00       1.68937E-02
   284    444.00       1.68755E-02
   285    445.00       1.68568E-02
   286    446.00       1.68377E-02
   287    447.00       1.68182E-02
   288    448.00       1.67982E-02
   289    449.00       1.67777E-02
   290    450.00       1.67569E-02
   291    451.00       1.67356E-02
   292    452.00       1.67139E-02
   293    453.00       1.66919E-02
   294    454.00       1.66694E-02
   295    455.00       1.66465E-02
   296    456.00       1.66232E-02
   297    457.00       1.65996E-02
   298    458.00       1.65755E-02
   299    459.00       1.65511E-02
   300    460.00       1.65263E-02
   301    461.00       1.65012E-02
   302    462.00       1.64757E-02
   303    463.00       1.64498E-02
   304    464.00       1.64236E-02
   305    465.00       1.63970E-02
   306    466.00       1.63701E-02
   307    467.00       1.63429E-02
   308    468.00       1.63153E-02
   309    469.00       1.62874E-02
   310    470.00       1.62592E-02
   311    471.00       1.62307E-02
   312    472.00       1.62018E-02
   313    473.00       1.61727E-02
   314    474.00       1.61432E-02
   315    475.00       1.61134E-02
   316    476.00       1.60834E-02
   317    477.00       1.60531E-02
   318    478.00       1.60225E-02
   319    479.00       1.59916E-02
   320    480.00       1.59604E-02
   321    481.00       1.59289E-02
   322    482.00       1.58972E-02
   323    483.00       1.58653E-02
   324    484.00       1.58330E-02
   325    485.00       1.58006E-02
   326    486.00       1.57678E-02
   327    487.00       1.57349E-02
   328    488.00       1.57017E-02
   329    489.00       1.56682E-02
   330    490.00       1.56345E-02
   331    491.00       1.56006E-02
   332    492.00       1.55665E-02
   333    493.00       1.55322E-02
   334    494.00       1.54976E-02
   335    495.00       1.54628E-02
   336    496.00       1.54278E-02
   337    497.00       1.53927E-02
   338    498.00       1.53573E-02
   339    499.00       1.53217E-02
   340    500.00       1.52859E-02
   341    501.00       1.52500E-02
   342    502.00       1.52138E-02
   343    503.00       1.51775E-02
   344    504.00       1.51410E-02
   345    505.00       1.51043E-02
   346    506.00       1.50675E-02
   347    507.00       1.50305E-02
   348    508.00       1.49933E-02
   349    509.00       1.49560E-02
   350    510.00       1.49185E-02
   351    511.00       1.48809E-02
   352    512.00       1.48431E-02
   353    513.00       1.48052E-02
   354    514.00       1.47671E-02
   355    515.00       1.47289E-02
   356    516.00       1.46906E-02
   357    517.00       1.46521E-02
   358    518.00       1.46135E-02
   359    519.00       1.45748E-02
   360    520.00       1.45360E-02
   361    521.00       1.44970E-02
   362    522.00       1.44580E-02
   363    523.00       1.44188E-02
   364    524.00       1.43795E-02
   365    525.00       1.43401E-02
   366    526.00       1.43006E-02
   367    527.00       1.42610E-02
   368    528.00       1.42213E-02
   369    529.00       1.41815E-02
   370    530.00       1.41416E-02
   371    531.00       1.41017E-02
   372    532.00       1.40616E-02
   373    533.00       1.40215E-02
   374    534.00       1.39812E-02
   375    535.00       1.39410E-02
   376    536.00       1.39006E-02
   377    537.00       1.38602E-02
   378    538.00       1.38196E-02
   379    539.00       1.37791E-02
   380    540.00       1.37384E-02
   381    541.00       1.36977E-02
   382    542.00       1.36570E-02
   383    543.00       1.36162E-02
   384    544.00       1.35753E-02
   385    545.00       1.35344E-02
   386    546.00       1.34934E-02
   387    547.00       1.34524E-02
   388    548.00       1.34114E-02
   389    549.00       1.33703E-02
   390    550.00       1.33291E-02
   391    551.00       1.32880E-02
   392    552.00       1.32468E-02
   393    553.00       1.32055E-02
   394    554.00       1.31643E-02
   395    555.00       1.31230E-02
   396    556.00       1.30817E-02
   397    557.00       1.30403E-02
   398    558.00       1.29990E-02
   399    559.00       1.29576E-02
   400    560.00       1.29162E-02
   401    561.00       1.28748E-02
   402    562.00       1.28333E-02
   403    563.00       1.27919E-02
   404    564.00       1.27504E-02
   405    565.00       1.27090E-02
   406    566.00       1.26675E-02
   407    567.00       1.26261E-02
   408    568.00       1.25846E-02
   409    569.00       1.25431E-02
   410    570.00       1.25017E-02
   411    571.00       1.24602E-02
   412    572.00       1.24188E-02
   413    573.00       1.23773E-02
   414    574.00       1.23359E-02
   415    575.00       1.22945E-02
   416    576.00       1.22531E-02
   417    577.00       1.22117E-02
   418    578.00       1.21703E-02
   419    579.00       1.21289E-02
   420    580.00       1.20876E-02
   421    581.00       1.20463E-02
   422    582.00       1.20050E-02
   423    583.00       1.19637E-02
   424    584.00       1.19224E-02
   425    585.00       1.18812E-02
   426    586.00       1.18400E-02
   427    587.00       1.17989E-02
   428    588.00       1.17577E-02
   429    589.00       1.17166E-02
   430    590.00       1.16756E-02
   431    591.00       1.16345E-02
   432    592.00       1.15936E-02
   433    593.00       1.15526E-02
   434    594.00       1.15117E-02
   435    595.00       1.14708E-02
   436    596.00       1.14300E-02
   437    597.00       1.13892E-02
   438    598.00       1.13485E-02
   439    599.00       1.13078E-02
   440    600.00       1.12671E-02
   441    601.00       1.12265E-02
   442    602.00       1.11860E-02
   443    603.00       1.11455E-02
   444    604.00       1.11050E-02
   445    605.00       1.10646E-02
   446    606.00       1.10243E-02
   447    607.00       1.09840E-02
   448    608.00       1.09438E-02
   449    609.00       1.09036E-02
   450    610.00       1.08635E-02
   451    611.00       1.08234E-02
   452    612.00       1.07834E-02
   453    613.00       1.07435E-02
   454    614.00       1.07036E-02
   455    615.00       1.06638E-02
   456    616.00       1.06241E-02
   457    617.00       1.05844E-02
   458    618.00       1.05448E-02
   459    619.00       1.05053E-02
   460    620.00       1.04658E-02
   461    621.00       1.04264E-02
   462    622.00       1.03870E-02
   463    623.00       1.03478E-02
   464    624.00       1.03086E-02
   465    625.00       1.02695E-02
   466    626.00       1.02304E-02
   467    627.00       1.01914E-02
   468    628.00       1.01525E-02
   469    629.00       1.01137E-02
   470    630.00       1.00750E-02
   471    631.00       1.00363E-02
   472    632.00       9.99769E-03
   473    633.00       9.95917E-03
   474    634.00       9.92073E-03
   475    635.00       9.88237E-03
   476    636.00       9.84409E-03
   477    637.00       9.80589E-03
   478    638.00       9.76777E-03
   479    639.00       9.72974E-03
   480    640.00       9.69178E-03
   481    641.00       9.65391E-03
   482    642.00       9.61613E-03
   483    643.00       9.57843E-03
   484    644.00       9.54081E-03
   485    645.00       9.50328E-03
   486    646.00       9.46583E-03
   487    647.00       9.42847E-03
   488    648.00       9.39120E-03
   489    649.00       9.35402E-03
   490    650.00       9.31693E-03
   491    651.00       9.27992E-03
   492    652.00       9.24300E-03
   493    653.00       9.20617E-03
   494    654.00       9.16944E-03
   495    655.00       9.13279E-03
   496    656.00       9.09623E-03
   497    657.00       9.05977E-03
   498    658.00       9.02339E-03
   499    659.00       8.98711E-03
   500    660.00       8.95092E-03
   501    661.00       8.91483E-03
   502    662.00       8.87882E-03
   503    663.00       8.84292E-03
   504    664.00       8.80710E-03
   505    665.00       8.77138E-03
   506    666.00       8.73575E-03
   507    667.00       8.70022E-03
   508    668.00       8.66479E-03
   509    669.00       8.62945E-03
   510    670.00       8.59420E-03
   511    671.00       8.55906E-03
   512    672.00       8.52401E-03
   513    673.00       8.48905E-03
   514    674.00       8.45419E-03
   515    675.00       8.41943E-03
   516    676.00       8.38477E-03
   517    677.00       8.35021E-03
   518    678.00       8.31574E-03
   519    679.00       8.28138E-03
   520    680.00       8.24711E-03
   521    681.00       8.21294E-03
   522    682.00       8.17887E-03
   523    683.00       8.14489E-03
   524    684.00       8.11102E-03
   525    685.00       8.07725E-03
   526    686.00       8.04357E-03
   527    687.00       8.01000E-03
   528    688.00       7.97653E-03
   529    689.00       7.94316E-03
   530    690.00       7.90988E-03
   531    691.00       7.87671E-03
   532    692.00       7.84364E-03
   533    693.00       7.81067E-03
   534    694.00       7.77780E-03
   535    695.00       7.74503E-03
   536    696.00       7.71236E-03
   537    697.00       7.67979E-03
   538    698.00       7.64733E-03
   539    699.00       7.61496E-03
   540    700.00       7.58270E-03
   541    701.00       7.55054E-03
   542    702.00       7.51848E-03
   543    703.00       7.48652E-03
   544    704.00       7.45466E-03
   545    705.00       7.42291E-03
   546    706.00       7.39126E-03
   547    707.00       7.35971E-03
   548    708.00       7.32826E-03
   549    709.00       7.29692E-03
   550    710.00       7.26567E-03
   551    711.00       7.23453E-03
   552    712.00       7.20349E-03
   553    713.00       7.17255E-03
   554    714.00       7.14171E-03
   555    715.00       7.11098E-03
   556    716.00       7.08035E-03
   557    717.00       7.04982E-03
   558    718.00       7.01939E-03
   559    719.00       6.98907E-03
   560    720.00       6.95884E-03
   561    721.00       6.92872E-03
   562    722.00       6.89871E-03
   563    723.00       6.86879E-03
   564    724.00       6.83897E-03
   565    725.00       6.80926E-03
   566    726.00       6.77965E-03
   567    727.00       6.75014E-03
   568    728.00       6.72073E-03
   569    729.00       6.69142E-03
   570    730.00       6.66222E-03
   571    731.00       6.63311E-03
   572    732.00       6.60411E-03
   573    733.00       6.57521E-03
   574    734.00       6.54641E-03
   575    735.00       6.51772E-03
   576    736.00       6.48912E-03
   577    737.00       6.46062E-03
   578    738.00       6.43223E-03
   579    739.00       6.40394E-03
   580    740.00       6.37574E-03
   581    741.00       6.34765E-03
   582    742.00       6.31966E-03
   583    743.00       6.29177E-03
   584    744.00       6.26398E-03
   585    745.00       6.23629E-03
   586    746.00       6.20870E-03
   587    747.00       6.18121E-03
   588    748.00       6.15382E-03
   589    749.00       6.12653E-03
   590    750.00       6.09934E-03
   591    751.00       6.07225E-03
   592    752.00       6.04526E-03
   593    753.00       6.01836E-03
   594    754.00       5.99157E-03
   595    755.00       5.96488E-03
   596    756.00       5.93828E-03
   597    757.00       5.91178E-03
   598    758.00       5.88539E-03
   599    759.00       5.85909E-03
   600    760.00       5.83288E-03
   601    761.00       5.80678E-03
   602    762.00       5.78077E-03
   603    763.00       5.75487E-03
   604    764.00       5.72906E-03
   605    765.00       5.70334E-03
   606    766.00       5.67773E-03
   607    767.00       5.65221E-03
   608    768.00       5.62679E-03
   609    769.00       5.60146E-03
   610    770.00       5.57623E-03
   611    771.00       5.55110E-03
   612    772.00       5.52606E-03
   613    773.00       5.50112E-03
   614    774.00       5.47628E-03
   615    775.00       5.45153E-03
   616    776.00       5.42688E-03
   617    777.00       5.40232E-03
   618    778.00       5.37785E-03
   619    779.00       5.35349E-03
   620    780.00       5.32921E-03
   621    781.00       5.30503E-03
   622    782.00       5.28095E-03
   623    783.00       5.25696E-03
   624    784.00       5.23306E-03
   625    785.00       5.20926E-03
   626    786.00       5.18554E-03
   627    787.00       5.16193E-03
   628    788.00       5.13840E-03
   629    789.00       5.11497E-03
   630    790.00       5.09163E-03
   631    791.00       5.06839E-03
   632    792.00       5.04523E-03
   633    793.00       5.02217E-03
   634    794.00       4.99920E-03
   635    795.00       4.97632E-03
   636    796.00       4.95353E-03
   637    797.00       4.93083E-03
   638    798.00       4.90823E-03
   639    799.00       4.88571E-03
   640    800.00       4.86329E-03
   641    801.00       4.84095E-03
   642    802.00       4.81871E-03
   643    803.00       4.79655E-03
   644    804.00       4.77448E-03
   645    805.00       4.75251E-03
   646    806.00       4.73062E-03
   647    807.00       4.70882E-03
   648    808.00       4.68711E-03
   649    809.00       4.66549E-03
   650    810.00       4.64395E-03
   651    811.00       4.62251E-03
   652    812.00       4.60115E-03
   653    813.00       4.57988E-03
   654    814.00       4.55869E-03
   655    815.00       4.53759E-03
   656    816.00       4.51658E-03
   657    817.00       4.49566E-03
   658    818.00       4.47482E-03
   659    819.00       4.45407E-03
   660    820.00       4.43340E-03
   661    821.00       4.41282E-03
   662    822.00       4.39232E-03
   663    823.00       4.37191E-03
   664    824.00       4.35159E-03
   665    825.00       4.33134E-03
   666    826.00       4.31118E-03
   667    827.00       4.29111E-03
   668    828.00       4.27112E-03
   669    829.00       4.25121E-03
   670    830.00       4.23139E-03
   671    831.00       4.21165E-03
   672    832.00       4.19199E-03
   673    833.00       4.17242E-03
   674    834.00       4.15292E-03
   675    835.00       4.13351E-03
   676    836.00       4.11418E-03
   677    837.00       4.09494E-03
   678    838.00       4.07577E-03
   679    839.00       4.05668E-03
   680    840.00       4.03768E-03
   681    841.00       4.01875E-03
   682    842.00       3.99991E-03
   683    843.00       3.98114E-03
   684    844.00       3.96246E-03
   685    845.00       3.94385E-03
   686    846.00       3.92533E-03
   687    847.00       3.90688E-03
   688    848.00       3.88851E-03
   689    849.00       3.87022E-03
   690    850.00       3.85201E-03
   691    851.00       3.83387E-03
   692    852.00       3.81582E-03
   693    853.00       3.79784E-03
   694    854.00       3.77994E-03
   695    855.00       3.76211E-03
   696    856.00       3.74436E-03
   697    857.00       3.72669E-03
   698    858.00       3.70910E-03
   699    859.00       3.69158E-03
   700    860.00       3.67413E-03
   701    861.00       3.65676E-03
   702    862.00       3.63947E-03
   703    863.00       3.62225E-03
   704    864.00       3.60511E-03
   705    865.00       3.58804E-03
   706    866.00       3.57104E-03
   707    867.00       3.55412E-03
   708    868.00       3.53727E-03
   709    869.00       3.52050E-03
   710    870.00       3.50380E-03
   711    871.00       3.48717E-03
   712    872.00       3.47061E-03
   713    873.00       3.45413E-03
   714    874.00       3.43772E-03
   715    875.00       3.42138E-03
   716    876.00       3.40511E-03
   717    877.00       3.38891E-03
   718    878.00       3.37279E-03
   719    879.00       3.35673E-03
   720    880.00       3.34075E-03
   721    881.00       3.32483E-03
   722    882.00       3.30899E-03
   723    883.00       3.29322E-03
   724    884.00       3.27751E-03
   725    885.00       3.26188E-03
   726    886.00       3.24631E-03
   727    887.00       3.23081E-03
   728    888.00       3.21539E-03
   729    889.00       3.20003E-03
   730    890.00       3.18473E-03
   731    891.00       3.16951E-03
   732    892.00       3.15435E-03
   733    893.00       3.13926E-03
   734    894.00       3.12424E-03
   735    895.00       3.10929E-03
   736    896.00       3.09440E-03
   737    897.00       3.07958E-03
   738    898.00       3.06482E-03
   739    899.00       3.05013E-03
   740    900.00       3.03551E-03
   741    901.00       3.02095E-03
   742    902.00       3.00645E-03
   743    903.00       2.99202E-03
   744    904.00       2.97766E-03
   745    905.00       2.96336E-03
   746    906.00       2.94912E-03
   747    907.00       2.93495E-03
   748    908.00       2.92084E-03
   749    909.00       2.90680E-03
   750    910.00       2.89282E-03
   751    911.00       2.87890E-03
   752    912.00       2.86504E-03
   753    913.00       2.85125E-03
   754    914.00       2.83752E-03
   755    915.00       2.82385E-03
   756    916.00       2.81024E-03
   757    917.00       2.79670E-03
   758    918.00       2.78321E-03
   759    919.00       2.76979E-03
   760    920.00       2.75643E-03
   761    921.00       2.74312E-03
   762    922.00       2.72988E-03
   763    923.00       2.71670E-03
   764    924.00       2.70358E-03
   765    925.00       2.69052E-03
   766    926.00       2.67751E-03
   767    927.00       2.66457E-03
   768    928.00       2.65169E-03
   769    929.00       2.63886E-03
   770    930.00       2.62609E-03
   771    931.00       2.61338E-03
   772    932.00       2.60073E-03
   773    933.00       2.58814E-03
   774    934.00       2.57560E-03
   775    935.00       2.56313E-03
   776    936.00       2.55071E-03
   777    937.00       2.53834E-03
   778    938.00       2.52603E-03
   779    939.00       2.51378E-03
   780    940.00       2.50159E-03
   781    941.00       2.48945E-03
   782    942.00       2.47736E-03
   783    943.00       2.46534E-03
   784    944.00       2.45336E-03
   785    945.00       2.44145E-03
   786    946.00       2.42958E-03
   787    947.00       2.41778E-03
   788    948.00       2.40602E-03
   789    949.00       2.39432E-03
   790    950.00       2.38268E-03
   791    951.00       2.37109E-03
   792    952.00       2.35955E-03
   793    953.00       2.34806E-03
   794    954.00       2.33663E-03
   795    955.00       2.32525E-03
   796    956.00       2.31393E-03
   797    957.00       2.30265E-03
   798    958.00       2.29143E-03
   799    959.00       2.28026E-03
   800    960.00       2.26915E-03
   801    961.00       2.25808E-03
   802    962.00       2.24706E-03
   803    963.00       2.23610E-03
   804    964.00       2.22519E-03
   805    965.00       2.21433E-03
   806    966.00       2.20352E-03
   807    967.00       2.19275E-03
   808    968.00       2.18204E-03
   809    969.00       2.17138E-03
   810    970.00       2.16077E-03
   811    971.00       2.15021E-03
   812    972.00       2.13970E-03
   813    973.00       2.12923E-03
   814    974.00       2.11882E-03
   815    975.00       2.10845E-03
   816    976.00       2.09814E-03
   817    977.00       2.08787E-03
   818    978.00       2.07765E-03
   819    979.00       2.06747E-03
   820    980.00       2.05735E-03
   821    981.00       2.04727E-03
   822    982.00       2.03724E-03
   823    983.00       2.02725E-03
   824    984.00       2.01732E-03
   825    985.00       2.00743E-03
   826    986.00       1.99758E-03
   827    987.00       1.98779E-03
   828    988.00       1.97803E-03
   829    989.00       1.96833E-03
   830    990.00       1.95867E-03
   831    991.00       1.94905E-03
   832    992.00       1.93948E-03
   833    993.00       1.92996E-03
   834    994.00       1.92048E-03
   835    995.00       1.91104E-03
   836    996.00       1.90165E-03
   837    997.00       1.89231E-03
   838    998.00       1.88301E-03
   839    999.00       1.87375E-03
   840    1000.0       1.86453E-03
   841    1001.0       1.85536E-03
   842    1002.0       1.84624E-03
   843    1003.0       1.83715E-03
   844    1004.0       1.82811E-03
   845    1005.0       1.81911E-03
   846    1006.0       1.81016E-03
   847    1007.0       1.80124E-03
   848    1008.0       1.79237E-03
   849    1009.0       1.78354E-03
   850    1010.0       1.77476E-03
   851    1011.0       1.76601E-03
   852    1012.0       1.75731E-03
   853    1013.0       1.74864E-03
   854    1014.0       1.74002E-03
   855    1015.0       1.73144E-03
   856    1016.0       1.72290E-03
   857    1017.0       1.71440E-03
   858    1018.0       1.70594E-03
   859    1019.0       1.69752E-03
   860    1020.0       1.68915E-03
   861    1021.0       1.68081E-03
   862    1022.0       1.67251E-03
   863    1023.0       1.66425E-03
   864    1024.0       1.65603E-03
   865    1025.0       1.64785E-03
   866    1026.0       1.63971E-03
   867    1027.0       1.63160E-03
   868    1028.0       1.62354E-03
   869    1029.0       1.61552E-03
   870    1030.0       1.60753E-03
   871    1031.0       1.59958E-03
   872    1032.0       1.59167E-03
   873    1033.0       1.58379E-03
   874    1034.0       1.57596E-03
   875    1035.0       1.56816E-03
   876    1036.0       1.56040E-03
   877    1037.0       1.55268E-03
   878    1038.0       1.54499E-03
   879    1039.0       1.53734E-03
   880    1040.0       1.52973E-03
   881    1041.0       1.52215E-03
   882    1042.0       1.51461E-03
   883    1043.0       1.50711E-03
   884    1044.0       1.49964E-03
   885    1045.0       1.49221E-03
   886    1046.0       1.48481E-03
   887    1047.0       1.47745E-03
   888    1048.0       1.47012E-03
   889    1049.0       1.46283E-03
   890    1050.0       1.45558E-03
   891    1051.0       1.44836E-03
   892    1052.0       1.44117E-03
   893    1053.0       1.43402E-03
   894    1054.0       1.42690E-03
   895    1055.0       1.41982E-03
   896    1056.0       1.41277E-03
   897    1057.0       1.40576E-03
   898    1058.0       1.39878E-03
   899    1059.0       1.39183E-03
   900    1060.0       1.38492E-03
   901    1061.0       1.37804E-03
   902    1062.0       1.37119E-03
   903    1063.0       1.36438E-03
   904    1064.0       1.35760E-03
   905    1065.0       1.35085E-03
   906    1066.0       1.34413E-03
   907    1067.0       1.33745E-03
   908    1068.0       1.33080E-03
   909    1069.0       1.32418E-03
   910    1070.0       1.31760E-03
   911    1071.0       1.31104E-03
   912    1072.0       1.30452E-03
   913    1073.0       1.29803E-03
   914    1074.0       1.29157E-03
   915    1075.0       1.28514E-03
   916    1076.0       1.27874E-03
   917    1077.0       1.27237E-03
   918    1078.0       1.26604E-03
   919    1079.0       1.25973E-03
   920    1080.0       1.25346E-03
   921    1081.0       1.24722E-03
   922    1082.0       1.24100E-03
   923    1083.0       1.23482E-03
   924    1084.0       1.22867E-03
   925    1085.0       1.22254E-03
   926    1086.0       1.21645E-03
   927    1087.0       1.21038E-03
   928    1088.0       1.20435E-03
   929    1089.0       1.19835E-03
   930    1090.0       1.19237E-03
   931    1091.0       1.18642E-03
   932    1092.0       1.18050E-03
   933    1093.0       1.17461E-03
   934    1094.0       1.16875E-03
   935    1095.0       1.16292E-03
   936    1096.0       1.15712E-03
   937    1097.0       1.15134E-03
   938    1098.0       1.14560E-03
   939    1099.0       1.13988E-03
   940    1100.0       1.13419E-03
   941    1101.0       1.12852E-03
   942    1102.0       1.12289E-03
   943    1103.0       1.11728E-03
   944    1104.0       1.11170E-03
   945    1105.0       1.10614E-03
   946    1106.0       1.10062E-03
   947    1107.0       1.09512E-03
   948    1108.0       1.08964E-03
   949    1109.0       1.08420E-03
   950    1110.0       1.07878E-03
   951    1111.0       1.07338E-03
   952    1112.0       1.06802E-03
   953    1113.0       1.06268E-03
   954    1114.0       1.05736E-03
   955    1115.0       1.05207E-03
   956    1116.0       1.04681E-03
   957    1117.0       1.04157E-03
   958    1118.0       1.03636E-03
   959    1119.0       1.03118E-03
   960    1120.0       1.02602E-03
   961    1121.0       1.02088E-03
   962    1122.0       1.01577E-03
   963    1123.0       1.01069E-03
   964    1124.0       1.00563E-03
   965    1125.0       1.00059E-03
   966    1126.0       9.95583E-04
   967    1127.0       9.90598E-04
   968    1128.0       9.85636E-04
   969    1129.0       9.80699E-04
   970    1130.0       9.75786E-04
   971    1131.0       9.70898E-04
   972    1132.0       9.66033E-04
   973    1133.0       9.61193E-04
   974    1134.0       9.56376E-04
   975    1135.0       9.51582E-04
   976    1136.0       9.46813E-04
   977    1137.0       9.42066E-04
   978    1138.0       9.37343E-04
   979    1139.0       9.32643E-04
   980    1140.0       9.27967E-04
   981    1141.0       9.23313E-04
   982    1142.0       9.18682E-04
   983    1143.0       9.14074E-04
   984    1144.0       9.09489E-04
   985    1145.0       9.04927E-04
   986    1146.0       9.00386E-04
   987    1147.0       8.95868E-04
   988    1148.0       8.91373E-04
   989    1149.0       8.86899E-04
   990    1150.0       8.82448E-04
   991    1151.0       8.78018E-04
   992    1152.0       8.73610E-04
   993    1153.0       8.69224E-04
   994    1154.0       8.64860E-04
   995    1155.0       8.60517E-04
   996    1156.0       8.56196E-04
   997    1157.0       8.51896E-04
   998    1158.0       8.47617E-04
   999    1159.0       8.43359E-04
  1000    1160.0       8.39122E-04
  1001    1161.0       8.34906E-04
  1002    1162.0       8.30711E-04
  1003    1163.0       8.26537E-04
  1004    1164.0       8.22383E-04
  1005    1165.0       8.18250E-04
  1006    1166.0       8.14137E-04
  1007    1167.0       8.10045E-04
  1008    1168.0       8.05972E-04
  1009    1169.0       8.01920E-04
  1010    1170.0       7.97888E-04
  1011    1171.0       7.93876E-04
  1012    1172.0       7.89884E-04
  1013    1173.0       7.85911E-04
  1014    1174.0       7.81958E-04
  1015    1175.0       7.78025E-04
  1016    1176.0       7.74111E-04
  1017    1177.0       7.70217E-04
  1018    1178.0       7.66341E-04
  1019    1179.0       7.62485E-04
  1020    1180.0       7.58648E-04
  1021    1181.0       7.54830E-04
  1022    1182.0       7.51031E-04
  1023    1183.0       7.47251E-04
  1024    1184.0       7.43489E-04
  1025    1185.0       7.39747E-04
  1026    1186.0       7.36022E-04
  1027    1187.0       7.32316E-04
  1028    1188.0       7.28629E-04
  1029    1189.0       7.24960E-04
  1030    1190.0       7.21309E-04
  1031    1191.0       7.17676E-04
  1032    1192.0       7.14061E-04
  1033    1193.0       7.10464E-04
  1034    1194.0       7.06885E-04
  1035    1195.0       7.03324E-04
  1036    1196.0       6.99780E-04
  1037    1197.0       6.96254E-04
  1038    1198.0       6.92746E-04
  1039    1199.0       6.89254E-04
  1040    1200.0       6.85781E-04
  1041    1201.0       6.82324E-04
  1042    1202.0       6.78885E-04
  1043    1203.0       6.75462E-04
  1044    1204.0       6.72057E-04
  1045    1205.0       6.68669E-04
  1046    1206.0       6.65297E-04
  1047    1207.0       6.61943E-04
  1048    1208.0       6.58605E-04
  1049    1209.0       6.55283E-04
  1050    1210.0       6.51978E-04
  1051    1211.0       6.48690E-04
  1052    1212.0       6.45418E-04
  1053    1213.0       6.42162E-04
  1054    1214.0       6.38922E-04
  1055    1215.0       6.35699E-04
  1056    1216.0       6.32491E-04
  1057    1217.0       6.29300E-04
  1058    1218.0       6.26124E-04
  1059    1219.0       6.22965E-04
  1060    1220.0       6.19820E-04
  1061    1221.0       6.16692E-04
  1062    1222.0       6.13579E-04
  1063    1223.0       6.10482E-04
  1064    1224.0       6.07400E-04
  1065    1225.0       6.04333E-04
  1066    1226.0       6.01282E-04
  1067    1227.0       5.98246E-04
  1068    1228.0       5.95225E-04
  1069    1229.0       5.92220E-04
  1070    1230.0       5.89229E-04
  1071    1231.0       5.86253E-04
  1072    1232.0       5.83292E-04
  1073    1233.0       5.80345E-04
  1074    1234.0       5.77414E-04
  1075    1235.0       5.74497E-04
  1076    1236.0       5.71594E-04
  1077    1237.0       5.68706E-04
  1078    1238.0       5.65833E-04
  1079    1239.0       5.62974E-04
  1080    1240.0       5.60129E-04
  1081    1241.0       5.57298E-04
  1082    1242.0       5.54482E-04
  1083    1243.0       5.51679E-04
  1084    1244.0       5.48891E-04
  1085    1245.0       5.46116E-04
  1086    1246.0       5.43355E-04
  1087    1247.0       5.40608E-04
  1088    1248.0       5.37875E-04
  1089    1249.0       5.35156E-04
  1090    1250.0       5.32450E-04
  1091    1251.0       5.29757E-04
  1092    1252.0       5.27079E-04
  1093    1253.0       5.24413E-04
  1094    1254.0       5.21761E-04
  1095    1255.0       5.19122E-04
  1096    1256.0       5.16496E-04
  1097    1257.0       5.13883E-04
  1098    1258.0       5.11284E-04
  1099    1259.0       5.08697E-04
  1100    1260.0       5.06124E-04
  1101    1261.0       5.03563E-04
  1102    1262.0       5.01015E-04
  1103    1263.0       4.98480E-04
  1104    1264.0       4.95958E-04
  1105    1265.0       4.93448E-04
  1106    1266.0       4.90950E-04
  1107    1267.0       4.88466E-04
  1108    1268.0       4.85993E-04
  1109    1269.0       4.83533E-04
  1110    1270.0       4.81086E-04
  1111    1271.0       4.78651E-04
  1112    1272.0       4.76227E-04
  1113    1273.0       4.73816E-04
  1114    1274.0       4.71417E-04
  1115    1275.0       4.69031E-04
  1116    1276.0       4.66656E-04
  1117    1277.0       4.64293E-04
  1118    1278.0       4.61941E-04
  1119    1279.0       4.59602E-04
  1120    1280.0       4.57274E-04
  1121    1281.0       4.54958E-04
  1122    1282.0       4.52654E-04
  1123    1283.0       4.50361E-04
  1124    1284.0       4.48080E-04
  1125    1285.0       4.45810E-04
  1126    1286.0       4.43551E-04
  1127    1287.0       4.41304E-04
  1128    1288.0       4.39068E-04
  1129    1289.0       4.36844E-04
  1130    1290.0       4.34630E-04
  1131    1291.0       4.32428E-04
  1132    1292.0       4.30236E-04
  1133    1293.0       4.28056E-04
  1134    1294.0       4.25887E-04
  1135    1295.0       4.23728E-04
  1136    1296.0       4.21580E-04
  1137    1297.0       4.19444E-04
  1138    1298.0       4.17317E-04
  1139    1299.0       4.15202E-04
  1140    1300.0       4.13097E-04
  1141    1301.0       4.11003E-04
  1142    1302.0       4.08919E-04
  1143    1303.0       4.06846E-04
  1144    1304.0       4.04783E-04
  1145    1305.0       4.02731E-04
  1146    1306.0       4.00689E-04
  1147    1307.0       3.98657E-04
  1148    1308.0       3.96635E-04
  1149    1309.0       3.94623E-04
  1150    1310.0       3.92622E-04
  1151    1311.0       3.90631E-04
  1152    1312.0       3.88649E-04
  1153    1313.0       3.86678E-04
  1154    1314.0       3.84717E-04
  1155    1315.0       3.82765E-04
  1156    1316.0       3.80823E-04
  1157    1317.0       3.78891E-04
  1158    1318.0       3.76969E-04
  1159    1319.0       3.75056E-04
  1160    1320.0       3.73153E-04
  1161    1321.0       3.71260E-04
  1162    1322.0       3.69376E-04
  1163    1323.0       3.67502E-04
  1164    1324.0       3.65637E-04
  1165    1325.0       3.63781E-04
  1166    1326.0       3.61935E-04
  1167    1327.0       3.60098E-04
  1168    1328.0       3.58270E-04
  1169    1329.0       3.56452E-04
  1170    1330.0       3.54643E-04
  1171    1331.0       3.52842E-04
  1172    1332.0       3.51051E-04
  1173    1333.0       3.49269E-04
  1174    1334.0       3.47496E-04
  1175    1335.0       3.45732E-04
  1176    1336.0       3.43976E-04
  1177    1337.0       3.42230E-04
  1178    1338.0       3.40492E-04
  1179    1339.0       3.38763E-04
  1180    1340.0       3.37043E-04
  1181    1341.0       3.35332E-04
  1182    1342.0       3.33629E-04
  1183    1343.0       3.31934E-04
  1184    1344.0       3.30248E-04
  1185    1345.0       3.28571E-04
  1186    1346.0       3.26902E-04
  1187    1347.0       3.25242E-04
  1188    1348.0       3.23590E-04
  1189    1349.0       3.21946E-04
  1190    1350.0       3.20311E-04
  1191    1351.0       3.18684E-04
  1192    1352.0       3.17065E-04
  1193    1353.0       3.15454E-04
  1194    1354.0       3.13851E-04
  1195    1355.0       3.12257E-04
  1196    1356.0       3.10670E-04
  1197    1357.0       3.09092E-04
  1198    1358.0       3.07521E-04
  1199    1359.0       3.05958E-04
  1200    1360.0       3.04404E-04
  1201    1361.0       3.02857E-04
  1202    1362.0       3.01318E-04
  1203    1363.0       2.99786E-04
  1204    1364.0       2.98263E-04
  1205    1365.0       2.96747E-04
  1206    1366.0       2.95239E-04
  1207    1367.0       2.93738E-04
  1208    1368.0       2.92245E-04
  1209    1369.0       2.90759E-04
  1210    1370.0       2.89281E-04
  1211    1371.0       2.87811E-04
  1212    1372.0       2.86348E-04
  1213    1373.0       2.84892E-04
  1214    1374.0       2.83443E-04
  1215    1375.0       2.82002E-04
  1216    1376.0       2.80569E-04
  1217    1377.0       2.79142E-04
  1218    1378.0       2.77723E-04
  1219    1379.0       2.76311E-04
  1220    1380.0       2.74905E-04
  1221    1381.0       2.73508E-04
  1222    1382.0       2.72117E-04
  1223    1383.0       2.70733E-04
  1224    1384.0       2.69356E-04
  1225    1385.0       2.67986E-04
  1226    1386.0       2.66623E-04
  1227    1387.0       2.65267E-04
  1228    1388.0       2.63918E-04
  1229    1389.0       2.62575E-04
  1230    1390.0       2.61240E-04
  1231    1391.0       2.59911E-04
  1232    1392.0       2.58589E-04
  1233    1393.0       2.57273E-04
  1234    1394.0       2.55965E-04
  1235    1395.0       2.54662E-04
  1236    1396.0       2.53367E-04
  1237    1397.0       2.52078E-04
  1238    1398.0       2.50795E-04
  1239    1399.0       2.49519E-04
  1240    1400.0       2.48250E-04
  1241    1401.0       2.46987E-04
  1242    1402.0       2.45730E-04
  1243    1403.0       2.44479E-04
  1244    1404.0       2.43235E-04
  1245    1405.0       2.41998E-04
  1246    1406.0       2.40766E-04
  1247    1407.0       2.39541E-04
  1248    1408.0       2.38322E-04
  1249    1409.0       2.37109E-04
  1250    1410.0       2.35902E-04
  1251    1411.0       2.34701E-04
  1252    1412.0       2.33507E-04
  1253    1413.0       2.32318E-04
  1254    1414.0       2.31136E-04
  1255    1415.0       2.29959E-04
  1256    1416.0       2.28789E-04
  1257    1417.0       2.27624E-04
  1258    1418.0       2.26465E-04
  1259    1419.0       2.25312E-04
  1260    1420.0       2.24165E-04
  1261    1421.0       2.23024E-04
  1262    1422.0       2.21889E-04
  1263    1423.0       2.20759E-04
  1264    1424.0       2.19635E-04
  1265    1425.0       2.18517E-04
  1266    1426.0       2.17404E-04
  1267    1427.0       2.16297E-04
  1268    1428.0       2.15196E-04
  1269    1429.0       2.14100E-04
  1270    1430.0       2.13010E-04
  1271    1431.0       2.11925E-04
  1272    1432.0       2.10846E-04
  1273    1433.0       2.09772E-04
  1274    1434.0       2.08704E-04
  1275    1435.0       2.07641E-04
  1276    1436.0       2.06583E-04
  1277    1437.0       2.05531E-04
  1278    1438.0       2.04484E-04
  1279    1439.0       2.03443E-04
  1280    1440.0       2.02407E-04
  1281    1441.0       2.01376E-04
  1282    1442.0       2.00350E-04
  1283    1443.0       1.99329E-04
  1284    1444.0       1.98314E-04
  1285    1445.0       1.97304E-04
  1286    1446.0       1.96299E-04
  1287    1447.0       1.95299E-04
  1288    1448.0       1.94304E-04
  1289    1449.0       1.93314E-04
  1290    1450.0       1.92329E-04
  1291    1451.0       1.91349E-04
  1292    1452.0       1.90374E-04
  1293    1453.0       1.89404E-04
  1294    1454.0       1.88439E-04
  1295    1455.0       1.87479E-04
  1296    1456.0       1.86524E-04
  1297    1457.0       1.85573E-04
  1298    1458.0       1.84628E-04
  1299    1459.0       1.83687E-04
  1300    1460.0       1.82751E-04
  1301    1461.0       1.81820E-04
  1302    1462.0       1.80893E-04
  1303    1463.0       1.79971E-04
  1304    1464.0       1.79054E-04
  1305    1465.0       1.78142E-04
  1306    1466.0       1.77234E-04
  1307    1467.0       1.76330E-04
  1308    1468.0       1.75432E-04
  1309    1469.0       1.74538E-04
  1310    1470.0       1.73648E-04
  1311    1471.0       1.72763E-04
  1312    1472.0       1.71882E-04
  1313    1473.0       1.71006E-04
  1314    1474.0       1.70135E-04
  1315    1475.0       1.69267E-04
  1316    1476.0       1.68404E-04
  1317    1477.0       1.67546E-04
  1318    1478.0       1.66692E-04
  1319    1479.0       1.65842E-04
  1320    1480.0       1.64997E-04
  1321    1481.0       1.64155E-04
  1322    1482.0       1.63319E-04
  1323    1483.0       1.62486E-04
  1324    1484.0       1.61658E-04
  1325    1485.0       1.60833E-04
  1326    1486.0       1.60013E-04
  1327    1487.0       1.59197E-04
  1328    1488.0       1.58386E-04
  1329    1489.0       1.57578E-04
  1330    1490.0       1.56775E-04
  1331    1491.0       1.55975E-04
  1332    1492.0       1.55180E-04
  1333    1493.0       1.54389E-04
  1334    1494.0       1.53601E-04
  1335    1495.0       1.52818E-04
  1336    1496.0       1.52039E-04
  1337    1497.0       1.51263E-04
  1338    1498.0       1.50492E-04
  1339    1499.0       1.49725E-04
  1340    1500.0       1.48961E-04
