  STEP   TOTAL TIME             LOCATION OF OBSERVATION POINTS (K,I,J)
                      1   1  51
     1    1.0000       1.01129E-11
     2    2.0000       1.33572E-10
     3    3.0000       9.19758E-10
     4    4.0000       4.40008E-09
     5    5.0000       1.64436E-08
     6    6.0000       5.11762E-08
     7    7.0000       1.38087E-07
     8    8.0000       3.32065E-07
     9    9.0000       7.26062E-07
    10    10.000       1.46546E-06
    11    11.000       2.76274E-06
    12    12.000       4.91093E-06
    13    13.000       8.29405E-06
    14    14.000       1.33935E-05
    15    15.000       2.07896E-05
    16    16.000       3.11572E-05
    17    17.000       4.52571E-05
    18    18.000       6.39228E-05
    19    19.000       8.80430E-05
    20    20.000       1.18543E-04
    21    21.000       1.56364E-04
    22    22.000       2.02441E-04
    23    23.000       2.57688E-04
    24    24.000       3.22971E-04
    25    25.000       3.99102E-04
    26    26.000       4.86817E-04
    27    27.000       5.86768E-04
    28    28.000       6.99518E-04
    29    29.000       8.25529E-04
    30    30.000       9.65163E-04
    31    31.000       1.11868E-03
    32    32.000       1.28625E-03
    33    33.000       1.46792E-03
    34    34.000       1.66367E-03
    35    35.000       1.87337E-03
    36    36.000       2.09683E-03
    37    37.000       2.33376E-03
    38    38.000       2.58383E-03
    39    39.000       2.84662E-03
    40    40.000       3.12168E-03
    41    41.000       3.40849E-03
    42    42.000       3.70651E-03
    43    43.000       4.01516E-03
    44    44.000       4.33384E-03
    45    45.000       4.66192E-03
    46    46.000       4.99876E-03
    47    47.000       5.34372E-03
    48    48.000       5.69614E-03
    49    49.000       6.05537E-03
    50    50.000       6.42076E-03
    51    51.000       6.79166E-03
    52    52.000       7.16745E-03
    53    53.000       7.54750E-03
    54    54.000       7.93121E-03
    55    55.000       8.31800E-03
    56    56.000       8.70728E-03
    57    57.000       9.09853E-03
    58    58.000       9.49120E-03
    59    59.000       9.88479E-03
    60    60.000       1.02788E-02
    61    61.000       1.06728E-02
    62    62.000       1.10663E-02
    63    63.000       1.14590E-02
    64    64.000       1.18504E-02
    65    65.000       1.22401E-02
    66    66.000       1.26278E-02
    67    67.000       1.30132E-02
    68    68.000       1.33960E-02
    69    69.000       1.37759E-02
    70    70.000       1.41526E-02
    71    71.000       1.45259E-02
    72    72.000       1.48955E-02
    73    73.000       1.52614E-02
    74    74.000       1.56231E-02
    75    75.000       1.59807E-02
    76    76.000       1.63339E-02
    77    77.000       1.66826E-02
    78    78.000       1.70267E-02
    79    79.000       1.73661E-02
    80    80.000       1.77006E-02
    81    81.000       1.80302E-02
    82    82.000       1.83549E-02
    83    83.000       1.86745E-02
    84    84.000       1.89890E-02
    85    85.000       1.92983E-02
    86    86.000       1.96026E-02
    87    87.000       1.99016E-02
    88    88.000       2.01954E-02
    89    89.000       2.04841E-02
    90    90.000       2.07676E-02
    91    91.000       2.10458E-02
    92    92.000       2.13189E-02
    93    93.000       2.15869E-02
    94    94.000       2.18498E-02
    95    95.000       2.21076E-02
    96    96.000       2.23603E-02
    97    97.000       2.26081E-02
    98    98.000       2.28509E-02
    99    99.000       2.30888E-02
   100    100.00       2.33218E-02
   101    101.00       2.35501E-02
   102    102.00       2.37736E-02
   103    103.00       2.39924E-02
   104    104.00       2.42066E-02
   105    105.00       2.44163E-02
   106    106.00       2.46215E-02
   107    107.00       2.48223E-02
   108    108.00       2.50188E-02
   109    109.00       2.52110E-02
   110    110.00       2.53989E-02
   111    111.00       2.55828E-02
   112    112.00       2.57626E-02
   113    113.00       2.59384E-02
   114    114.00       2.61103E-02
   115    115.00       2.62784E-02
   116    116.00       2.64427E-02
   117    117.00       2.66033E-02
   118    118.00       2.67603E-02
   119    119.00       2.69138E-02
   120    120.00       2.70638E-02
   121    121.00       2.72104E-02
   122    122.00       2.73536E-02
   123    123.00       2.74936E-02
   124    124.00       2.76304E-02
   125    125.00       2.77641E-02
   126    126.00       2.78947E-02
   127    127.00       2.80224E-02
   128    128.00       2.81471E-02
   129    129.00       2.82690E-02
   130    130.00       2.83881E-02
   131    131.00       2.85045E-02
   132    132.00       2.86183E-02
   133    133.00       2.87294E-02
   134    134.00       2.88380E-02
   135    135.00       2.89441E-02
   136    136.00       2.90479E-02
   137    137.00       2.91492E-02
   138    138.00       2.92483E-02
   139    139.00       2.93451E-02
   140    140.00       2.94397E-02
   141    141.00       2.95323E-02
   142    142.00       2.96227E-02
   143    143.00       2.97111E-02
   144    144.00       2.97975E-02
   145    145.00       2.98820E-02
   146    146.00       2.99646E-02
   147    147.00       3.00454E-02
   148    148.00       3.01244E-02
   149    149.00       3.02017E-02
   150    150.00       3.02773E-02
   151    151.00       3.03512E-02
   152    152.00       3.04236E-02
   153    153.00       3.04943E-02
   154    154.00       3.05636E-02
   155    155.00       3.06314E-02
   156    156.00       3.06977E-02
   157    157.00       3.07626E-02
   158    158.00       3.08261E-02
   159    159.00       3.08884E-02
   160    160.00       3.09493E-02
     1    161.00       3.10090E-02
     2    162.00       3.10674E-02
     3    163.00       3.11247E-02
     4    164.00       3.11808E-02
     5    165.00       3.12357E-02
     6    166.00       3.12896E-02
     7    167.00       3.13423E-02
     8    168.00       3.13938E-02
     9    169.00       3.14442E-02
    10    170.00       3.14932E-02
    11    171.00       3.15407E-02
    12    172.00       3.15864E-02
    13    173.00       3.16300E-02
    14    174.00       3.16710E-02
    15    175.00       3.17089E-02
    16    176.00       3.17429E-02
    17    177.00       3.17724E-02
    18    178.00       3.17965E-02
    19    179.00       3.18145E-02
    20    180.00       3.18253E-02
    21    181.00       3.18280E-02
    22    182.00       3.18218E-02
    23    183.00       3.18058E-02
    24    184.00       3.17790E-02
    25    185.00       3.17408E-02
    26    186.00       3.16903E-02
    27    187.00       3.16270E-02
    28    188.00       3.15503E-02
    29    189.00       3.14598E-02
    30    190.00       3.13551E-02
    31    191.00       3.12359E-02
    32    192.00       3.11022E-02
    33    193.00       3.09538E-02
    34    194.00       3.07909E-02
    35    195.00       3.06136E-02
    36    196.00       3.04220E-02
    37    197.00       3.02165E-02
    38    198.00       2.99974E-02
    39    199.00       2.97651E-02
    40    200.00       2.95202E-02
    41    201.00       2.92631E-02
    42    202.00       2.89943E-02
    43    203.00       2.87146E-02
    44    204.00       2.84245E-02
    45    205.00       2.81246E-02
    46    206.00       2.78155E-02
    47    207.00       2.74981E-02
    48    208.00       2.71728E-02
    49    209.00       2.68404E-02
    50    210.00       2.65015E-02
    51    211.00       2.61568E-02
    52    212.00       2.58069E-02
    53    213.00       2.54524E-02
    54    214.00       2.50940E-02
    55    215.00       2.47322E-02
    56    216.00       2.43677E-02
    57    217.00       2.40010E-02
    58    218.00       2.36326E-02
    59    219.00       2.32630E-02
    60    220.00       2.28928E-02
    61    221.00       2.25223E-02
    62    222.00       2.21521E-02
    63    223.00       2.17825E-02
    64    224.00       2.14141E-02
    65    225.00       2.10470E-02
    66    226.00       2.06817E-02
    67    227.00       2.03186E-02
    68    228.00       1.99579E-02
    69    229.00       1.95999E-02
    70    230.00       1.92449E-02
    71    231.00       1.88932E-02
    72    232.00       1.85449E-02
    73    233.00       1.82003E-02
    74    234.00       1.78596E-02
    75    235.00       1.75229E-02
    76    236.00       1.71904E-02
    77    237.00       1.68623E-02
    78    238.00       1.65386E-02
    79    239.00       1.62195E-02
    80    240.00       1.59052E-02
    81    241.00       1.55956E-02
    82    242.00       1.52908E-02
    83    243.00       1.49910E-02
    84    244.00       1.46961E-02
    85    245.00       1.44063E-02
    86    246.00       1.41215E-02
    87    247.00       1.38417E-02
    88    248.00       1.35670E-02
    89    249.00       1.32975E-02
    90    250.00       1.30330E-02
    91    251.00       1.27735E-02
    92    252.00       1.25192E-02
    93    253.00       1.22699E-02
    94    254.00       1.20256E-02
    95    255.00       1.17863E-02
    96    256.00       1.15519E-02
    97    257.00       1.13225E-02
    98    258.00       1.10979E-02
    99    259.00       1.08781E-02
   100    260.00       1.06631E-02
   101    261.00       1.04528E-02
   102    262.00       1.02472E-02
   103    263.00       1.00462E-02
   104    264.00       9.84969E-03
   105    265.00       9.65767E-03
   106    266.00       9.47006E-03
   107    267.00       9.28679E-03
   108    268.00       9.10780E-03
   109    269.00       8.93301E-03
   110    270.00       8.76236E-03
   111    271.00       8.59577E-03
   112    272.00       8.43317E-03
   113    273.00       8.27450E-03
   114    274.00       8.11968E-03
   115    275.00       7.96864E-03
   116    276.00       7.82130E-03
   117    277.00       7.67760E-03
   118    278.00       7.53747E-03
   119    279.00       7.40083E-03
   120    280.00       7.26760E-03
   121    281.00       7.13773E-03
   122    282.00       7.01114E-03
   123    283.00       6.88776E-03
   124    284.00       6.76752E-03
   125    285.00       6.65036E-03
   126    286.00       6.53620E-03
   127    287.00       6.42497E-03
   128    288.00       6.31662E-03
   129    289.00       6.21108E-03
   130    290.00       6.10828E-03
   131    291.00       6.00816E-03
   132    292.00       5.91065E-03
   133    293.00       5.81570E-03
   134    294.00       5.72325E-03
   135    295.00       5.63323E-03
   136    296.00       5.54558E-03
   137    297.00       5.46025E-03
   138    298.00       5.37719E-03
   139    299.00       5.29633E-03
   140    300.00       5.21762E-03
   141    301.00       5.14102E-03
   142    302.00       5.06645E-03
   143    303.00       4.99388E-03
   144    304.00       4.92326E-03
   145    305.00       4.85453E-03
   146    306.00       4.78764E-03
   147    307.00       4.72256E-03
   148    308.00       4.65922E-03
   149    309.00       4.59759E-03
   150    310.00       4.53762E-03
   151    311.00       4.47928E-03
   152    312.00       4.42250E-03
   153    313.00       4.36727E-03
   154    314.00       4.31352E-03
   155    315.00       4.26123E-03
   156    316.00       4.21036E-03
   157    317.00       4.16086E-03
   158    318.00       4.11270E-03
   159    319.00       4.06585E-03
   160    320.00       4.02027E-03
   161    321.00       3.97592E-03
   162    322.00       3.93278E-03
   163    323.00       3.89080E-03
   164    324.00       3.84996E-03
   165    325.00       3.81022E-03
   166    326.00       3.77156E-03
   167    327.00       3.73395E-03
   168    328.00       3.69735E-03
   169    329.00       3.66174E-03
   170    330.00       3.62709E-03
   171    331.00       3.59338E-03
   172    332.00       3.56057E-03
   173    333.00       3.52865E-03
   174    334.00       3.49759E-03
   175    335.00       3.46736E-03
   176    336.00       3.43794E-03
   177    337.00       3.40931E-03
   178    338.00       3.38144E-03
   179    339.00       3.35432E-03
   180    340.00       3.32792E-03
   181    341.00       3.30223E-03
   182    342.00       3.27722E-03
   183    343.00       3.25287E-03
   184    344.00       3.22917E-03
   185    345.00       3.20609E-03
   186    346.00       3.18362E-03
   187    347.00       3.16174E-03
   188    348.00       3.14044E-03
   189    349.00       3.11969E-03
   190    350.00       3.09949E-03
   191    351.00       3.07981E-03
   192    352.00       3.06064E-03
   193    353.00       3.04197E-03
   194    354.00       3.02378E-03
   195    355.00       3.00606E-03
   196    356.00       2.98879E-03
   197    357.00       2.97196E-03
   198    358.00       2.95557E-03
   199    359.00       2.93959E-03
   200    360.00       2.92401E-03
   201    361.00       2.90883E-03
   202    362.00       2.89402E-03
   203    363.00       2.87959E-03
   204    364.00       2.86552E-03
   205    365.00       2.85179E-03
   206    366.00       2.83841E-03
   207    367.00       2.82535E-03
   208    368.00       2.81261E-03
   209    369.00       2.80018E-03
   210    370.00       2.78806E-03
   211    371.00       2.77622E-03
   212    372.00       2.76467E-03
   213    373.00       2.75339E-03
   214    374.00       2.74238E-03
   215    375.00       2.73163E-03
   216    376.00       2.72113E-03
   217    377.00       2.71088E-03
   218    378.00       2.70086E-03
   219    379.00       2.69107E-03
   220    380.00       2.68151E-03
   221    381.00       2.67217E-03
   222    382.00       2.66303E-03
   223    383.00       2.65410E-03
   224    384.00       2.64537E-03
   225    385.00       2.63683E-03
   226    386.00       2.62847E-03
   227    387.00       2.62030E-03
   228    388.00       2.61230E-03
   229    389.00       2.60448E-03
   230    390.00       2.59682E-03
   231    391.00       2.58932E-03
   232    392.00       2.58198E-03
   233    393.00       2.57479E-03
   234    394.00       2.56775E-03
   235    395.00       2.56085E-03
   236    396.00       2.55409E-03
   237    397.00       2.54746E-03
   238    398.00       2.54097E-03
   239    399.00       2.53460E-03
   240    400.00       2.52835E-03
   241    401.00       2.52222E-03
   242    402.00       2.51621E-03
   243    403.00       2.51032E-03
   244    404.00       2.50453E-03
   245    405.00       2.49884E-03
   246    406.00       2.49327E-03
   247    407.00       2.48779E-03
   248    408.00       2.48240E-03
   249    409.00       2.47711E-03
   250    410.00       2.47192E-03
   251    411.00       2.46681E-03
   252    412.00       2.46179E-03
   253    413.00       2.45685E-03
   254    414.00       2.45199E-03
   255    415.00       2.44721E-03
   256    416.00       2.44251E-03
   257    417.00       2.43788E-03
   258    418.00       2.43332E-03
   259    419.00       2.42884E-03
   260    420.00       2.42442E-03
   261    421.00       2.42007E-03
   262    422.00       2.41578E-03
   263    423.00       2.41155E-03
   264    424.00       2.40739E-03
   265    425.00       2.40328E-03
   266    426.00       2.39923E-03
   267    427.00       2.39523E-03
   268    428.00       2.39129E-03
   269    429.00       2.38740E-03
   270    430.00       2.38356E-03
   271    431.00       2.37977E-03
   272    432.00       2.37603E-03
   273    433.00       2.37233E-03
   274    434.00       2.36868E-03
   275    435.00       2.36507E-03
   276    436.00       2.36151E-03
   277    437.00       2.35798E-03
   278    438.00       2.35450E-03
   279    439.00       2.35106E-03
   280    440.00       2.34765E-03
   281    441.00       2.34428E-03
   282    442.00       2.34094E-03
   283    443.00       2.33764E-03
   284    444.00       2.33438E-03
   285    445.00       2.33114E-03
   286    446.00       2.32794E-03
   287    447.00       2.32477E-03
   288    448.00       2.32163E-03
   289    449.00       2.31852E-03
   290    450.00       2.31543E-03
   291    451.00       2.31238E-03
   292    452.00       2.30935E-03
   293    453.00       2.30635E-03
   294    454.00       2.30337E-03
   295    455.00       2.30041E-03
   296    456.00       2.29749E-03
   297    457.00       2.29458E-03
   298    458.00       2.29170E-03
   299    459.00       2.28883E-03
   300    460.00       2.28599E-03
   301    461.00       2.28317E-03
   302    462.00       2.28037E-03
   303    463.00       2.27759E-03
   304    464.00       2.27483E-03
   305    465.00       2.27209E-03
   306    466.00       2.26937E-03
   307    467.00       2.26666E-03
   308    468.00       2.26397E-03
   309    469.00       2.26130E-03
   310    470.00       2.25865E-03
   311    471.00       2.25601E-03
   312    472.00       2.25338E-03
   313    473.00       2.25077E-03
   314    474.00       2.24818E-03
   315    475.00       2.24559E-03
   316    476.00       2.24303E-03
   317    477.00       2.24047E-03
   318    478.00       2.23793E-03
   319    479.00       2.23541E-03
   320    480.00       2.23289E-03
   321    481.00       2.23039E-03
   322    482.00       2.22790E-03
   323    483.00       2.22542E-03
   324    484.00       2.22295E-03
   325    485.00       2.22049E-03
   326    486.00       2.21805E-03
   327    487.00       2.21561E-03
   328    488.00       2.21318E-03
   329    489.00       2.21077E-03
   330    490.00       2.20836E-03
   331    491.00       2.20596E-03
   332    492.00       2.20358E-03
   333    493.00       2.20120E-03
   334    494.00       2.19883E-03
   335    495.00       2.19647E-03
   336    496.00       2.19412E-03
   337    497.00       2.19177E-03
   338    498.00       2.18944E-03
   339    499.00       2.18711E-03
   340    500.00       2.18479E-03
   341    501.00       2.18247E-03
   342    502.00       2.18017E-03
   343    503.00       2.17787E-03
   344    504.00       2.17558E-03
   345    505.00       2.17329E-03
   346    506.00       2.17101E-03
   347    507.00       2.16874E-03
   348    508.00       2.16648E-03
   349    509.00       2.16422E-03
   350    510.00       2.16196E-03
   351    511.00       2.15972E-03
   352    512.00       2.15748E-03
   353    513.00       2.15524E-03
   354    514.00       2.15301E-03
   355    515.00       2.15079E-03
   356    516.00       2.14857E-03
   357    517.00       2.14636E-03
   358    518.00       2.14415E-03
   359    519.00       2.14195E-03
   360    520.00       2.13975E-03
   361    521.00       2.13756E-03
   362    522.00       2.13537E-03
   363    523.00       2.13319E-03
   364    524.00       2.13101E-03
   365    525.00       2.12883E-03
   366    526.00       2.12666E-03
   367    527.00       2.12450E-03
   368    528.00       2.12234E-03
   369    529.00       2.12018E-03
   370    530.00       2.11803E-03
   371    531.00       2.11588E-03
   372    532.00       2.11374E-03
   373    533.00       2.11160E-03
   374    534.00       2.10946E-03
   375    535.00       2.10733E-03
   376    536.00       2.10520E-03
   377    537.00       2.10308E-03
   378    538.00       2.10096E-03
   379    539.00       2.09884E-03
   380    540.00       2.09673E-03
   381    541.00       2.09462E-03
   382    542.00       2.09251E-03
   383    543.00       2.09041E-03
   384    544.00       2.08831E-03
   385    545.00       2.08621E-03
   386    546.00       2.08412E-03
   387    547.00       2.08203E-03
   388    548.00       2.07994E-03
   389    549.00       2.07786E-03
   390    550.00       2.07578E-03
   391    551.00       2.07371E-03
   392    552.00       2.07163E-03
   393    553.00       2.06956E-03
   394    554.00       2.06749E-03
   395    555.00       2.06543E-03
   396    556.00       2.06337E-03
   397    557.00       2.06131E-03
   398    558.00       2.05925E-03
   399    559.00       2.05720E-03
   400    560.00       2.05515E-03
   401    561.00       2.05310E-03
   402    562.00       2.05106E-03
   403    563.00       2.04902E-03
   404    564.00       2.04698E-03
   405    565.00       2.04494E-03
   406    566.00       2.04291E-03
   407    567.00       2.04088E-03
   408    568.00       2.03885E-03
   409    569.00       2.03682E-03
   410    570.00       2.03480E-03
   411    571.00       2.03278E-03
   412    572.00       2.03076E-03
   413    573.00       2.02874E-03
   414    574.00       2.02673E-03
   415    575.00       2.02472E-03
   416    576.00       2.02271E-03
   417    577.00       2.02070E-03
   418    578.00       2.01870E-03
   419    579.00       2.01670E-03
   420    580.00       2.01470E-03
   421    581.00       2.01270E-03
   422    582.00       2.01071E-03
   423    583.00       2.00872E-03
   424    584.00       2.00673E-03
   425    585.00       2.00474E-03
   426    586.00       2.00276E-03
   427    587.00       2.00077E-03
   428    588.00       1.99879E-03
   429    589.00       1.99682E-03
   430    590.00       1.99484E-03
   431    591.00       1.99287E-03
   432    592.00       1.99089E-03
   433    593.00       1.98893E-03
   434    594.00       1.98696E-03
   435    595.00       1.98499E-03
   436    596.00       1.98303E-03
   437    597.00       1.98107E-03
   438    598.00       1.97911E-03
   439    599.00       1.97716E-03
   440    600.00       1.97520E-03
   441    601.00       1.97325E-03
   442    602.00       1.97130E-03
   443    603.00       1.96935E-03
   444    604.00       1.96741E-03
   445    605.00       1.96546E-03
   446    606.00       1.96352E-03
   447    607.00       1.96158E-03
   448    608.00       1.95965E-03
   449    609.00       1.95771E-03
   450    610.00       1.95578E-03
   451    611.00       1.95385E-03
   452    612.00       1.95192E-03
   453    613.00       1.94999E-03
   454    614.00       1.94806E-03
   455    615.00       1.94614E-03
   456    616.00       1.94422E-03
   457    617.00       1.94230E-03
   458    618.00       1.94038E-03
   459    619.00       1.93847E-03
   460    620.00       1.93656E-03
   461    621.00       1.93464E-03
   462    622.00       1.93273E-03
   463    623.00       1.93083E-03
   464    624.00       1.92892E-03
   465    625.00       1.92702E-03
   466    626.00       1.92512E-03
   467    627.00       1.92322E-03
   468    628.00       1.92132E-03
   469    629.00       1.91942E-03
   470    630.00       1.91753E-03
   471    631.00       1.91564E-03
   472    632.00       1.91375E-03
   473    633.00       1.91186E-03
   474    634.00       1.90997E-03
   475    635.00       1.90809E-03
   476    636.00       1.90621E-03
   477    637.00       1.90433E-03
   478    638.00       1.90245E-03
   479    639.00       1.90057E-03
   480    640.00       1.89870E-03
   481    641.00       1.89682E-03
   482    642.00       1.89495E-03
   483    643.00       1.89308E-03
   484    644.00       1.89122E-03
   485    645.00       1.88935E-03
   486    646.00       1.88749E-03
   487    647.00       1.88563E-03
   488    648.00       1.88377E-03
   489    649.00       1.88191E-03
   490    650.00       1.88005E-03
   491    651.00       1.87820E-03
   492    652.00       1.87634E-03
   493    653.00       1.87449E-03
   494    654.00       1.87264E-03
   495    655.00       1.87080E-03
   496    656.00       1.86895E-03
   497    657.00       1.86711E-03
   498    658.00       1.86527E-03
   499    659.00       1.86343E-03
   500    660.00       1.86159E-03
   501    661.00       1.85975E-03
   502    662.00       1.85792E-03
   503    663.00       1.85609E-03
   504    664.00       1.85425E-03
   505    665.00       1.85243E-03
   506    666.00       1.85060E-03
   507    667.00       1.84877E-03
   508    668.00       1.84695E-03
   509    669.00       1.84513E-03
   510    670.00       1.84331E-03
   511    671.00       1.84149E-03
   512    672.00       1.83967E-03
   513    673.00       1.83786E-03
   514    674.00       1.83605E-03
   515    675.00       1.83423E-03
   516    676.00       1.83242E-03
   517    677.00       1.83062E-03
   518    678.00       1.82881E-03
   519    679.00       1.82701E-03
   520    680.00       1.82520E-03
   521    681.00       1.82340E-03
   522    682.00       1.82160E-03
   523    683.00       1.81981E-03
   524    684.00       1.81801E-03
   525    685.00       1.81622E-03
   526    686.00       1.81443E-03
   527    687.00       1.81264E-03
   528    688.00       1.81085E-03
   529    689.00       1.80906E-03
   530    690.00       1.80728E-03
   531    691.00       1.80549E-03
   532    692.00       1.80371E-03
   533    693.00       1.80193E-03
   534    694.00       1.80015E-03
   535    695.00       1.79838E-03
   536    696.00       1.79660E-03
   537    697.00       1.79483E-03
   538    698.00       1.79306E-03
   539    699.00       1.79129E-03
   540    700.00       1.78952E-03
   541    701.00       1.78776E-03
   542    702.00       1.78599E-03
   543    703.00       1.78423E-03
   544    704.00       1.78247E-03
   545    705.00       1.78071E-03
   546    706.00       1.77895E-03
   547    707.00       1.77720E-03
   548    708.00       1.77544E-03
   549    709.00       1.77369E-03
   550    710.00       1.77194E-03
   551    711.00       1.77019E-03
   552    712.00       1.76844E-03
   553    713.00       1.76670E-03
   554    714.00       1.76495E-03
   555    715.00       1.76321E-03
   556    716.00       1.76147E-03
   557    717.00       1.75973E-03
   558    718.00       1.75800E-03
   559    719.00       1.75626E-03
   560    720.00       1.75453E-03
   561    721.00       1.75280E-03
   562    722.00       1.75106E-03
   563    723.00       1.74934E-03
   564    724.00       1.74761E-03
   565    725.00       1.74588E-03
   566    726.00       1.74416E-03
   567    727.00       1.74244E-03
   568    728.00       1.74072E-03
   569    729.00       1.73900E-03
   570    730.00       1.73728E-03
   571    731.00       1.73557E-03
   572    732.00       1.73385E-03
   573    733.00       1.73214E-03
   574    734.00       1.73043E-03
   575    735.00       1.72872E-03
   576    736.00       1.72701E-03
   577    737.00       1.72531E-03
   578    738.00       1.72360E-03
   579    739.00       1.72190E-03
   580    740.00       1.72020E-03
   581    741.00       1.71850E-03
   582    742.00       1.71681E-03
   583    743.00       1.71511E-03
   584    744.00       1.71342E-03
   585    745.00       1.71172E-03
   586    746.00       1.71003E-03
   587    747.00       1.70834E-03
   588    748.00       1.70666E-03
   589    749.00       1.70497E-03
   590    750.00       1.70329E-03
   591    751.00       1.70160E-03
   592    752.00       1.69992E-03
   593    753.00       1.69824E-03
   594    754.00       1.69657E-03
   595    755.00       1.69489E-03
   596    756.00       1.69322E-03
   597    757.00       1.69154E-03
   598    758.00       1.68987E-03
   599    759.00       1.68820E-03
   600    760.00       1.68653E-03
   601    761.00       1.68487E-03
   602    762.00       1.68320E-03
   603    763.00       1.68154E-03
   604    764.00       1.67988E-03
   605    765.00       1.67822E-03
   606    766.00       1.67656E-03
   607    767.00       1.67490E-03
   608    768.00       1.67325E-03
   609    769.00       1.67160E-03
   610    770.00       1.66994E-03
   611    771.00       1.66829E-03
   612    772.00       1.66665E-03
   613    773.00       1.66500E-03
   614    774.00       1.66335E-03
   615    775.00       1.66171E-03
   616    776.00       1.66007E-03
   617    777.00       1.65843E-03
   618    778.00       1.65679E-03
   619    779.00       1.65515E-03
   620    780.00       1.65351E-03
   621    781.00       1.65188E-03
   622    782.00       1.65025E-03
   623    783.00       1.64861E-03
   624    784.00       1.64699E-03
   625    785.00       1.64536E-03
   626    786.00       1.64373E-03
   627    787.00       1.64211E-03
   628    788.00       1.64048E-03
   629    789.00       1.63886E-03
   630    790.00       1.63724E-03
   631    791.00       1.63562E-03
   632    792.00       1.63400E-03
   633    793.00       1.63239E-03
   634    794.00       1.63077E-03
   635    795.00       1.62916E-03
   636    796.00       1.62755E-03
   637    797.00       1.62594E-03
   638    798.00       1.62433E-03
   639    799.00       1.62273E-03
   640    800.00       1.62112E-03
   641    801.00       1.61952E-03
   642    802.00       1.61792E-03
   643    803.00       1.61632E-03
   644    804.00       1.61472E-03
   645    805.00       1.61312E-03
   646    806.00       1.61153E-03
   647    807.00       1.60993E-03
   648    808.00       1.60834E-03
   649    809.00       1.60675E-03
   650    810.00       1.60516E-03
   651    811.00       1.60357E-03
   652    812.00       1.60199E-03
   653    813.00       1.60040E-03
   654    814.00       1.59882E-03
   655    815.00       1.59724E-03
   656    816.00       1.59566E-03
   657    817.00       1.59408E-03
   658    818.00       1.59250E-03
   659    819.00       1.59093E-03
   660    820.00       1.58935E-03
   661    821.00       1.58778E-03
   662    822.00       1.58621E-03
   663    823.00       1.58464E-03
   664    824.00       1.58307E-03
   665    825.00       1.58151E-03
   666    826.00       1.57994E-03
   667    827.00       1.57838E-03
   668    828.00       1.57682E-03
   669    829.00       1.57526E-03
   670    830.00       1.57370E-03
   671    831.00       1.57214E-03
   672    832.00       1.57059E-03
   673    833.00       1.56903E-03
   674    834.00       1.56748E-03
   675    835.00       1.56593E-03
   676    836.00       1.56438E-03
   677    837.00       1.56283E-03
   678    838.00       1.56128E-03
   679    839.00       1.55974E-03
   680    840.00       1.55819E-03
   681    841.00       1.55665E-03
   682    842.00       1.55511E-03
   683    843.00       1.55357E-03
   684    844.00       1.55203E-03
   685    845.00       1.55050E-03
   686    846.00       1.54896E-03
   687    847.00       1.54743E-03
   688    848.00       1.54590E-03
   689    849.00       1.54437E-03
   690    850.00       1.54284E-03
   691    851.00       1.54131E-03
   692    852.00       1.53979E-03
   693    853.00       1.53826E-03
   694    854.00       1.53674E-03
   695    855.00       1.53522E-03
   696    856.00       1.53370E-03
   697    857.00       1.53218E-03
   698    858.00       1.53066E-03
   699    859.00       1.52915E-03
   700    860.00       1.52763E-03
   701    861.00       1.52612E-03
   702    862.00       1.52461E-03
   703    863.00       1.52310E-03
   704    864.00       1.52159E-03
   705    865.00       1.52008E-03
   706    866.00       1.51858E-03
   707    867.00       1.51708E-03
   708    868.00       1.51557E-03
   709    869.00       1.51407E-03
   710    870.00       1.51257E-03
   711    871.00       1.51107E-03
   712    872.00       1.50958E-03
   713    873.00       1.50808E-03
   714    874.00       1.50659E-03
   715    875.00       1.50510E-03
   716    876.00       1.50361E-03
   717    877.00       1.50212E-03
   718    878.00       1.50063E-03
   719    879.00       1.49914E-03
   720    880.00       1.49766E-03
   721    881.00       1.49617E-03
   722    882.00       1.49469E-03
   723    883.00       1.49321E-03
   724    884.00       1.49173E-03
   725    885.00       1.49025E-03
   726    886.00       1.48878E-03
   727    887.00       1.48730E-03
   728    888.00       1.48583E-03
   729    889.00       1.48436E-03
   730    890.00       1.48289E-03
   731    891.00       1.48142E-03
   732    892.00       1.47995E-03
   733    893.00       1.47848E-03
   734    894.00       1.47702E-03
   735    895.00       1.47555E-03
   736    896.00       1.47409E-03
   737    897.00       1.47263E-03
   738    898.00       1.47117E-03
   739    899.00       1.46971E-03
   740    900.00       1.46826E-03
   741    901.00       1.46680E-03
   742    902.00       1.46535E-03
   743    903.00       1.46389E-03
   744    904.00       1.46244E-03
   745    905.00       1.46099E-03
   746    906.00       1.45955E-03
   747    907.00       1.45810E-03
   748    908.00       1.45665E-03
   749    909.00       1.45521E-03
   750    910.00       1.45377E-03
   751    911.00       1.45233E-03
   752    912.00       1.45089E-03
   753    913.00       1.44945E-03
   754    914.00       1.44801E-03
   755    915.00       1.44658E-03
   756    916.00       1.44514E-03
   757    917.00       1.44371E-03
   758    918.00       1.44228E-03
   759    919.00       1.44085E-03
   760    920.00       1.43942E-03
   761    921.00       1.43799E-03
   762    922.00       1.43657E-03
   763    923.00       1.43514E-03
   764    924.00       1.43372E-03
   765    925.00       1.43230E-03
   766    926.00       1.43088E-03
   767    927.00       1.42946E-03
   768    928.00       1.42804E-03
   769    929.00       1.42663E-03
   770    930.00       1.42521E-03
   771    931.00       1.42380E-03
   772    932.00       1.42239E-03
   773    933.00       1.42098E-03
   774    934.00       1.41957E-03
   775    935.00       1.41816E-03
   776    936.00       1.41675E-03
   777    937.00       1.41535E-03
   778    938.00       1.41394E-03
   779    939.00       1.41254E-03
   780    940.00       1.41114E-03
   781    941.00       1.40974E-03
   782    942.00       1.40834E-03
   783    943.00       1.40695E-03
   784    944.00       1.40555E-03
   785    945.00       1.40416E-03
   786    946.00       1.40276E-03
   787    947.00       1.40137E-03
   788    948.00       1.39998E-03
   789    949.00       1.39859E-03
   790    950.00       1.39721E-03
   791    951.00       1.39582E-03
   792    952.00       1.39443E-03
   793    953.00       1.39305E-03
   794    954.00       1.39167E-03
   795    955.00       1.39029E-03
   796    956.00       1.38891E-03
   797    957.00       1.38753E-03
   798    958.00       1.38615E-03
   799    959.00       1.38478E-03
   800    960.00       1.38340E-03
   801    961.00       1.38203E-03
   802    962.00       1.38066E-03
   803    963.00       1.37929E-03
   804    964.00       1.37792E-03
   805    965.00       1.37655E-03
   806    966.00       1.37519E-03
   807    967.00       1.37382E-03
   808    968.00       1.37246E-03
   809    969.00       1.37110E-03
   810    970.00       1.36974E-03
   811    971.00       1.36838E-03
   812    972.00       1.36702E-03
   813    973.00       1.36566E-03
   814    974.00       1.36431E-03
   815    975.00       1.36295E-03
   816    976.00       1.36160E-03
   817    977.00       1.36025E-03
   818    978.00       1.35890E-03
   819    979.00       1.35755E-03
   820    980.00       1.35620E-03
   821    981.00       1.35486E-03
   822    982.00       1.35351E-03
   823    983.00       1.35217E-03
   824    984.00       1.35082E-03
   825    985.00       1.34948E-03
   826    986.00       1.34814E-03
   827    987.00       1.34681E-03
   828    988.00       1.34547E-03
   829    989.00       1.34413E-03
   830    990.00       1.34280E-03
   831    991.00       1.34146E-03
   832    992.00       1.34013E-03
   833    993.00       1.33880E-03
   834    994.00       1.33747E-03
   835    995.00       1.33614E-03
   836    996.00       1.33482E-03
   837    997.00       1.33349E-03
   838    998.00       1.33217E-03
   839    999.00       1.33084E-03
   840    1000.0       1.32952E-03
   841    1001.0       1.32820E-03
   842    1002.0       1.32688E-03
   843    1003.0       1.32557E-03
   844    1004.0       1.32425E-03
   845    1005.0       1.32293E-03
   846    1006.0       1.32162E-03
   847    1007.0       1.32031E-03
   848    1008.0       1.31900E-03
   849    1009.0       1.31769E-03
   850    1010.0       1.31638E-03
   851    1011.0       1.31507E-03
   852    1012.0       1.31376E-03
   853    1013.0       1.31246E-03
   854    1014.0       1.31115E-03
   855    1015.0       1.30985E-03
   856    1016.0       1.30855E-03
   857    1017.0       1.30725E-03
   858    1018.0       1.30595E-03
   859    1019.0       1.30465E-03
   860    1020.0       1.30336E-03
   861    1021.0       1.30206E-03
   862    1022.0       1.30077E-03
   863    1023.0       1.29948E-03
   864    1024.0       1.29819E-03
   865    1025.0       1.29690E-03
   866    1026.0       1.29561E-03
   867    1027.0       1.29432E-03
   868    1028.0       1.29303E-03
   869    1029.0       1.29175E-03
   870    1030.0       1.29046E-03
   871    1031.0       1.28918E-03
   872    1032.0       1.28790E-03
   873    1033.0       1.28662E-03
   874    1034.0       1.28534E-03
   875    1035.0       1.28407E-03
   876    1036.0       1.28279E-03
   877    1037.0       1.28151E-03
   878    1038.0       1.28024E-03
   879    1039.0       1.27897E-03
   880    1040.0       1.27770E-03
   881    1041.0       1.27643E-03
   882    1042.0       1.27516E-03
   883    1043.0       1.27389E-03
   884    1044.0       1.27262E-03
   885    1045.0       1.27136E-03
   886    1046.0       1.27010E-03
   887    1047.0       1.26883E-03
   888    1048.0       1.26757E-03
   889    1049.0       1.26631E-03
   890    1050.0       1.26505E-03
   891    1051.0       1.26380E-03
   892    1052.0       1.26254E-03
   893    1053.0       1.26128E-03
   894    1054.0       1.26003E-03
   895    1055.0       1.25878E-03
   896    1056.0       1.25752E-03
   897    1057.0       1.25627E-03
   898    1058.0       1.25503E-03
   899    1059.0       1.25378E-03
   900    1060.0       1.25253E-03
   901    1061.0       1.25129E-03
   902    1062.0       1.25004E-03
   903    1063.0       1.24880E-03
   904    1064.0       1.24756E-03
   905    1065.0       1.24632E-03
   906    1066.0       1.24508E-03
   907    1067.0       1.24384E-03
   908    1068.0       1.24260E-03
   909    1069.0       1.24136E-03
   910    1070.0       1.24013E-03
   911    1071.0       1.23890E-03
   912    1072.0       1.23766E-03
   913    1073.0       1.23643E-03
   914    1074.0       1.23520E-03
   915    1075.0       1.23398E-03
   916    1076.0       1.23275E-03
   917    1077.0       1.23152E-03
   918    1078.0       1.23030E-03
   919    1079.0       1.22907E-03
   920    1080.0       1.22785E-03
   921    1081.0       1.22663E-03
   922    1082.0       1.22541E-03
   923    1083.0       1.22419E-03
   924    1084.0       1.22297E-03
   925    1085.0       1.22176E-03
   926    1086.0       1.22054E-03
   927    1087.0       1.21933E-03
   928    1088.0       1.21811E-03
   929    1089.0       1.21690E-03
   930    1090.0       1.21569E-03
   931    1091.0       1.21448E-03
   932    1092.0       1.21327E-03
   933    1093.0       1.21206E-03
   934    1094.0       1.21086E-03
   935    1095.0       1.20965E-03
   936    1096.0       1.20845E-03
   937    1097.0       1.20725E-03
   938    1098.0       1.20605E-03
   939    1099.0       1.20485E-03
   940    1100.0       1.20365E-03
   941    1101.0       1.20245E-03
   942    1102.0       1.20125E-03
   943    1103.0       1.20006E-03
   944    1104.0       1.19886E-03
   945    1105.0       1.19767E-03
   946    1106.0       1.19648E-03
   947    1107.0       1.19529E-03
   948    1108.0       1.19410E-03
   949    1109.0       1.19291E-03
   950    1110.0       1.19172E-03
   951    1111.0       1.19054E-03
   952    1112.0       1.18935E-03
   953    1113.0       1.18817E-03
   954    1114.0       1.18698E-03
   955    1115.0       1.18580E-03
   956    1116.0       1.18462E-03
   957    1117.0       1.18344E-03
   958    1118.0       1.18226E-03
   959    1119.0       1.18109E-03
   960    1120.0       1.17991E-03
   961    1121.0       1.17874E-03
   962    1122.0       1.17756E-03
   963    1123.0       1.17639E-03
   964    1124.0       1.17522E-03
   965    1125.0       1.17405E-03
   966    1126.0       1.17288E-03
   967    1127.0       1.17171E-03
   968    1128.0       1.17055E-03
   969    1129.0       1.16938E-03
   970    1130.0       1.16822E-03
   971    1131.0       1.16705E-03
   972    1132.0       1.16589E-03
   973    1133.0       1.16473E-03
   974    1134.0       1.16357E-03
   975    1135.0       1.16241E-03
   976    1136.0       1.16125E-03
   977    1137.0       1.16010E-03
   978    1138.0       1.15894E-03
   979    1139.0       1.15779E-03
   980    1140.0       1.15663E-03
   981    1141.0       1.15548E-03
   982    1142.0       1.15433E-03
   983    1143.0       1.15318E-03
   984    1144.0       1.15203E-03
   985    1145.0       1.15089E-03
   986    1146.0       1.14974E-03
   987    1147.0       1.14859E-03
   988    1148.0       1.14745E-03
   989    1149.0       1.14631E-03
   990    1150.0       1.14517E-03
   991    1151.0       1.14402E-03
   992    1152.0       1.14288E-03
   993    1153.0       1.14175E-03
   994    1154.0       1.14061E-03
   995    1155.0       1.13947E-03
   996    1156.0       1.13834E-03
   997    1157.0       1.13720E-03
   998    1158.0       1.13607E-03
   999    1159.0       1.13494E-03
  1000    1160.0       1.13381E-03
  1001    1161.0       1.13268E-03
  1002    1162.0       1.13155E-03
  1003    1163.0       1.13042E-03
  1004    1164.0       1.12930E-03
  1005    1165.0       1.12817E-03
  1006    1166.0       1.12705E-03
  1007    1167.0       1.12592E-03
  1008    1168.0       1.12480E-03
  1009    1169.0       1.12368E-03
  1010    1170.0       1.12256E-03
  1011    1171.0       1.12144E-03
  1012    1172.0       1.12032E-03
  1013    1173.0       1.11921E-03
  1014    1174.0       1.11809E-03
  1015    1175.0       1.11698E-03
  1016    1176.0       1.11586E-03
  1017    1177.0       1.11475E-03
  1018    1178.0       1.11364E-03
  1019    1179.0       1.11253E-03
  1020    1180.0       1.11142E-03
  1021    1181.0       1.11031E-03
  1022    1182.0       1.10921E-03
  1023    1183.0       1.10810E-03
  1024    1184.0       1.10700E-03
  1025    1185.0       1.10589E-03
  1026    1186.0       1.10479E-03
  1027    1187.0       1.10369E-03
  1028    1188.0       1.10259E-03
  1029    1189.0       1.10149E-03
  1030    1190.0       1.10039E-03
  1031    1191.0       1.09930E-03
  1032    1192.0       1.09820E-03
  1033    1193.0       1.09710E-03
  1034    1194.0       1.09601E-03
  1035    1195.0       1.09492E-03
  1036    1196.0       1.09383E-03
  1037    1197.0       1.09274E-03
  1038    1198.0       1.09165E-03
  1039    1199.0       1.09056E-03
  1040    1200.0       1.08947E-03
  1041    1201.0       1.08838E-03
  1042    1202.0       1.08730E-03
  1043    1203.0       1.08621E-03
  1044    1204.0       1.08513E-03
  1045    1205.0       1.08405E-03
  1046    1206.0       1.08297E-03
  1047    1207.0       1.08189E-03
  1048    1208.0       1.08081E-03
  1049    1209.0       1.07973E-03
  1050    1210.0       1.07865E-03
  1051    1211.0       1.07758E-03
  1052    1212.0       1.07650E-03
  1053    1213.0       1.07543E-03
  1054    1214.0       1.07436E-03
  1055    1215.0       1.07329E-03
  1056    1216.0       1.07221E-03
  1057    1217.0       1.07115E-03
  1058    1218.0       1.07008E-03
  1059    1219.0       1.06901E-03
  1060    1220.0       1.06794E-03
  1061    1221.0       1.06688E-03
  1062    1222.0       1.06581E-03
  1063    1223.0       1.06475E-03
  1064    1224.0       1.06369E-03
  1065    1225.0       1.06263E-03
  1066    1226.0       1.06157E-03
  1067    1227.0       1.06051E-03
  1068    1228.0       1.05945E-03
  1069    1229.0       1.05839E-03
  1070    1230.0       1.05734E-03
  1071    1231.0       1.05628E-03
  1072    1232.0       1.05523E-03
  1073    1233.0       1.05418E-03
  1074    1234.0       1.05312E-03
  1075    1235.0       1.05207E-03
  1076    1236.0       1.05102E-03
  1077    1237.0       1.04997E-03
  1078    1238.0       1.04893E-03
  1079    1239.0       1.04788E-03
  1080    1240.0       1.04683E-03
  1081    1241.0       1.04579E-03
  1082    1242.0       1.04475E-03
  1083    1243.0       1.04370E-03
  1084    1244.0       1.04266E-03
  1085    1245.0       1.04162E-03
  1086    1246.0       1.04058E-03
  1087    1247.0       1.03954E-03
  1088    1248.0       1.03851E-03
  1089    1249.0       1.03747E-03
  1090    1250.0       1.03643E-03
  1091    1251.0       1.03540E-03
  1092    1252.0       1.03437E-03
  1093    1253.0       1.03333E-03
  1094    1254.0       1.03230E-03
  1095    1255.0       1.03127E-03
  1096    1256.0       1.03024E-03
  1097    1257.0       1.02921E-03
  1098    1258.0       1.02819E-03
  1099    1259.0       1.02716E-03
  1100    1260.0       1.02613E-03
  1101    1261.0       1.02511E-03
  1102    1262.0       1.02409E-03
  1103    1263.0       1.02306E-03
  1104    1264.0       1.02204E-03
  1105    1265.0       1.02102E-03
  1106    1266.0       1.02000E-03
  1107    1267.0       1.01898E-03
  1108    1268.0       1.01797E-03
  1109    1269.0       1.01695E-03
  1110    1270.0       1.01593E-03
  1111    1271.0       1.01492E-03
  1112    1272.0       1.01391E-03
  1113    1273.0       1.01289E-03
  1114    1274.0       1.01188E-03
  1115    1275.0       1.01087E-03
  1116    1276.0       1.00986E-03
  1117    1277.0       1.00885E-03
  1118    1278.0       1.00785E-03
  1119    1279.0       1.00684E-03
  1120    1280.0       1.00583E-03
  1121    1281.0       1.00483E-03
  1122    1282.0       1.00383E-03
  1123    1283.0       1.00282E-03
  1124    1284.0       1.00182E-03
  1125    1285.0       1.00082E-03
  1126    1286.0       9.99823E-04
  1127    1287.0       9.98824E-04
  1128    1288.0       9.97826E-04
  1129    1289.0       9.96830E-04
  1130    1290.0       9.95834E-04
  1131    1291.0       9.94839E-04
  1132    1292.0       9.93845E-04
  1133    1293.0       9.92852E-04
  1134    1294.0       9.91861E-04
  1135    1295.0       9.90870E-04
  1136    1296.0       9.89880E-04
  1137    1297.0       9.88891E-04
  1138    1298.0       9.87903E-04
  1139    1299.0       9.86916E-04
  1140    1300.0       9.85930E-04
  1141    1301.0       9.84945E-04
  1142    1302.0       9.83961E-04
  1143    1303.0       9.82978E-04
  1144    1304.0       9.81996E-04
  1145    1305.0       9.81015E-04
  1146    1306.0       9.80035E-04
  1147    1307.0       9.79055E-04
  1148    1308.0       9.78077E-04
  1149    1309.0       9.77100E-04
  1150    1310.0       9.76123E-04
  1151    1311.0       9.75148E-04
  1152    1312.0       9.74173E-04
  1153    1313.0       9.73200E-04
  1154    1314.0       9.72227E-04
  1155    1315.0       9.71256E-04
  1156    1316.0       9.70285E-04
  1157    1317.0       9.69316E-04
  1158    1318.0       9.68347E-04
  1159    1319.0       9.67379E-04
  1160    1320.0       9.66412E-04
  1161    1321.0       9.65446E-04
  1162    1322.0       9.64481E-04
  1163    1323.0       9.63517E-04
  1164    1324.0       9.62554E-04
  1165    1325.0       9.61592E-04
  1166    1326.0       9.60631E-04
  1167    1327.0       9.59671E-04
  1168    1328.0       9.58712E-04
  1169    1329.0       9.57753E-04
  1170    1330.0       9.56796E-04
  1171    1331.0       9.55839E-04
  1172    1332.0       9.54884E-04
  1173    1333.0       9.53929E-04
  1174    1334.0       9.52975E-04
  1175    1335.0       9.52023E-04
  1176    1336.0       9.51071E-04
  1177    1337.0       9.50120E-04
  1178    1338.0       9.49170E-04
  1179    1339.0       9.48221E-04
  1180    1340.0       9.47273E-04
  1181    1341.0       9.46326E-04
  1182    1342.0       9.45380E-04
  1183    1343.0       9.44435E-04
  1184    1344.0       9.43490E-04
  1185    1345.0       9.42547E-04
  1186    1346.0       9.41604E-04
  1187    1347.0       9.40662E-04
  1188    1348.0       9.39722E-04
  1189    1349.0       9.38782E-04
  1190    1350.0       9.37843E-04
  1191    1351.0       9.36906E-04
  1192    1352.0       9.35969E-04
  1193    1353.0       9.35032E-04
  1194    1354.0       9.34098E-04
  1195    1355.0       9.33163E-04
  1196    1356.0       9.32230E-04
  1197    1357.0       9.31298E-04
  1198    1358.0       9.30366E-04
  1199    1359.0       9.29436E-04
  1200    1360.0       9.28506E-04
  1201    1361.0       9.27577E-04
  1202    1362.0       9.26649E-04
  1203    1363.0       9.25723E-04
  1204    1364.0       9.24797E-04
  1205    1365.0       9.23872E-04
  1206    1366.0       9.22948E-04
  1207    1367.0       9.22024E-04
  1208    1368.0       9.21102E-04
  1209    1369.0       9.20180E-04
  1210    1370.0       9.19260E-04
  1211    1371.0       9.18340E-04
  1212    1372.0       9.17422E-04
  1213    1373.0       9.16504E-04
  1214    1374.0       9.15587E-04
  1215    1375.0       9.14671E-04
  1216    1376.0       9.13756E-04
  1217    1377.0       9.12841E-04
  1218    1378.0       9.11928E-04
  1219    1379.0       9.11015E-04
  1220    1380.0       9.10104E-04
  1221    1381.0       9.09193E-04
  1222    1382.0       9.08283E-04
  1223    1383.0       9.07374E-04
  1224    1384.0       9.06467E-04
  1225    1385.0       9.05559E-04
  1226    1386.0       9.04653E-04
  1227    1387.0       9.03748E-04
  1228    1388.0       9.02843E-04
  1229    1389.0       9.01940E-04
  1230    1390.0       9.01037E-04
  1231    1391.0       9.00136E-04
  1232    1392.0       8.99235E-04
  1233    1393.0       8.98335E-04
  1234    1394.0       8.97436E-04
  1235    1395.0       8.96538E-04
  1236    1396.0       8.95641E-04
  1237    1397.0       8.94744E-04
  1238    1398.0       8.93848E-04
  1239    1399.0       8.92954E-04
  1240    1400.0       8.92060E-04
  1241    1401.0       8.91167E-04
  1242    1402.0       8.90275E-04
  1243    1403.0       8.89384E-04
  1244    1404.0       8.88494E-04
  1245    1405.0       8.87604E-04
  1246    1406.0       8.86716E-04
  1247    1407.0       8.85828E-04
  1248    1408.0       8.84941E-04
  1249    1409.0       8.84055E-04
  1250    1410.0       8.83170E-04
  1251    1411.0       8.82286E-04
  1252    1412.0       8.81402E-04
  1253    1413.0       8.80520E-04
  1254    1414.0       8.79638E-04
  1255    1415.0       8.78758E-04
  1256    1416.0       8.77878E-04
  1257    1417.0       8.76999E-04
  1258    1418.0       8.76121E-04
  1259    1419.0       8.75244E-04
  1260    1420.0       8.74367E-04
  1261    1421.0       8.73492E-04
  1262    1422.0       8.72617E-04
  1263    1423.0       8.71743E-04
  1264    1424.0       8.70870E-04
  1265    1425.0       8.69998E-04
  1266    1426.0       8.69127E-04
  1267    1427.0       8.68256E-04
  1268    1428.0       8.67387E-04
  1269    1429.0       8.66518E-04
  1270    1430.0       8.65650E-04
  1271    1431.0       8.64783E-04
  1272    1432.0       8.63917E-04
  1273    1433.0       8.63052E-04
  1274    1434.0       8.62188E-04
  1275    1435.0       8.61324E-04
  1276    1436.0       8.60461E-04
  1277    1437.0       8.59599E-04
  1278    1438.0       8.58738E-04
  1279    1439.0       8.57878E-04
  1280    1440.0       8.57019E-04
  1281    1441.0       8.56161E-04
  1282    1442.0       8.55303E-04
  1283    1443.0       8.54446E-04
  1284    1444.0       8.53590E-04
  1285    1445.0       8.52735E-04
  1286    1446.0       8.51881E-04
  1287    1447.0       8.51027E-04
  1288    1448.0       8.50175E-04
  1289    1449.0       8.49323E-04
  1290    1450.0       8.48472E-04
  1291    1451.0       8.47622E-04
  1292    1452.0       8.46773E-04
  1293    1453.0       8.45924E-04
  1294    1454.0       8.45077E-04
  1295    1455.0       8.44230E-04
  1296    1456.0       8.43384E-04
  1297    1457.0       8.42539E-04
  1298    1458.0       8.41695E-04
  1299    1459.0       8.40851E-04
  1300    1460.0       8.40009E-04
  1301    1461.0       8.39167E-04
  1302    1462.0       8.38326E-04
  1303    1463.0       8.37486E-04
  1304    1464.0       8.36647E-04
  1305    1465.0       8.35808E-04
  1306    1466.0       8.34971E-04
  1307    1467.0       8.34134E-04
  1308    1468.0       8.33298E-04
  1309    1469.0       8.32463E-04
  1310    1470.0       8.31628E-04
  1311    1471.0       8.30795E-04
  1312    1472.0       8.29962E-04
  1313    1473.0       8.29130E-04
  1314    1474.0       8.28299E-04
  1315    1475.0       8.27469E-04
  1316    1476.0       8.26640E-04
  1317    1477.0       8.25811E-04
  1318    1478.0       8.24983E-04
  1319    1479.0       8.24156E-04
  1320    1480.0       8.23330E-04
  1321    1481.0       8.22505E-04
  1322    1482.0       8.21680E-04
  1323    1483.0       8.20857E-04
  1324    1484.0       8.20034E-04
  1325    1485.0       8.19212E-04
  1326    1486.0       8.18390E-04
  1327    1487.0       8.17570E-04
  1328    1488.0       8.16750E-04
  1329    1489.0       8.15931E-04
  1330    1490.0       8.15113E-04
  1331    1491.0       8.14296E-04
  1332    1492.0       8.13479E-04
  1333    1493.0       8.12664E-04
  1334    1494.0       8.11849E-04
  1335    1495.0       8.11035E-04
  1336    1496.0       8.10222E-04
  1337    1497.0       8.09409E-04
  1338    1498.0       8.08597E-04
  1339    1499.0       8.07787E-04
  1340    1500.0       8.06977E-04
