  STEP   TOTAL TIME             LOCATION OF OBSERVATION POINTS (K,I,J)
                      1   1  51
     1    1.0000       1.08028E-11
     2    2.0000       1.08090E-11
     3    3.0000       1.08151E-11
     4    4.0000       1.08213E-11
     5    5.0000       1.08275E-11
     6    6.0000       1.08336E-11
     7    7.0000       1.08398E-11
     8    8.0000       1.08460E-11
     9    9.0000       1.08522E-11
    10    10.000       1.08584E-11
    11    11.000       1.08646E-11
    12    12.000       1.08709E-11
    13    13.000       1.08771E-11
    14    14.000       1.08833E-11
    15    15.000       1.08896E-11
    16    16.000       1.08958E-11
    17    17.000       1.09021E-11
    18    18.000       1.09083E-11
    19    19.000       1.09146E-11
    20    20.000       1.09209E-11
    21    21.000       1.09272E-11
    22    22.000       1.09335E-11
    23    23.000       1.09397E-11
    24    24.000       1.09461E-11
    25    25.000       1.09524E-11
    26    26.000       1.09587E-11
    27    27.000       1.09650E-11
    28    28.000       1.09713E-11
    29    29.000       1.09777E-11
    30    30.000       1.09840E-11
    31    31.000       1.09904E-11
    32    32.000       1.09967E-11
    33    33.000       1.10031E-11
    34    34.000       1.10095E-11
    35    35.000       1.10158E-11
    36    36.000       1.10222E-11
    37    37.000       1.10286E-11
    38    38.000       1.10350E-11
    39    39.000       1.10414E-11
    40    40.000       1.10479E-11
    41    41.000       1.10543E-11
    42    42.000       1.10607E-11
    43    43.000       1.10671E-11
    44    44.000       1.10736E-11
    45    45.000       1.10800E-11
    46    46.000       1.10865E-11
    47    47.000       1.10930E-11
    48    48.000       1.10994E-11
    49    49.000       1.11059E-11
    50    50.000       1.11124E-11
    51    51.000       1.11189E-11
    52    52.000       1.11254E-11
    53    53.000       1.11319E-11
    54    54.000       1.11384E-11
    55    55.000       1.11450E-11
    56    56.000       1.11515E-11
    57    57.000       1.11580E-11
    58    58.000       1.11646E-11
    59    59.000       1.11711E-11
    60    60.000       1.11777E-11
    61    61.000       1.11843E-11
    62    62.000       1.11908E-11
    63    63.000       1.11974E-11
    64    64.000       1.12040E-11
    65    65.000       1.12106E-11
    66    66.000       1.12172E-11
    67    67.000       1.12238E-11
    68    68.000       1.12305E-11
    69    69.000       1.12371E-11
    70    70.000       1.12437E-11
    71    71.000       1.12504E-11
    72    72.000       1.12570E-11
    73    73.000       1.12637E-11
    74    74.000       1.12703E-11
    75    75.000       1.12770E-11
    76    76.000       1.12837E-11
    77    77.000       1.12904E-11
    78    78.000       1.12971E-11
    79    79.000       1.13038E-11
    80    80.000       1.13105E-11
    81    81.000       1.13172E-11
    82    82.000       1.13239E-11
    83    83.000       1.13307E-11
    84    84.000       1.13374E-11
    85    85.000       1.13442E-11
    86    86.000       1.13509E-11
    87    87.000       1.13577E-11
    88    88.000       1.13645E-11
    89    89.000       1.13713E-11
    90    90.000       1.13780E-11
    91    91.000       1.13848E-11
    92    92.000       1.13916E-11
    93    93.000       1.13985E-11
    94    94.000       1.14053E-11
    95    95.000       1.14121E-11
    96    96.000       1.14189E-11
    97    97.000       1.14258E-11
    98    98.000       1.14326E-11
    99    99.000       1.14395E-11
   100    100.00       1.14464E-11
   101    101.00       1.14533E-11
   102    102.00       1.14601E-11
   103    103.00       1.14670E-11
   104    104.00       1.14739E-11
   105    105.00       1.14808E-11
   106    106.00       1.14878E-11
   107    107.00       1.14947E-11
   108    108.00       1.15016E-11
   109    109.00       1.15086E-11
   110    110.00       1.15155E-11
   111    111.00       1.15225E-11
   112    112.00       1.15294E-11
   113    113.00       1.15364E-11
   114    114.00       1.15434E-11
   115    115.00       1.15504E-11
   116    116.00       1.15574E-11
   117    117.00       1.15644E-11
   118    118.00       1.15714E-11
   119    119.00       1.15784E-11
   120    120.00       1.15854E-11
   121    121.00       1.15925E-11
   122    122.00       1.15995E-11
   123    123.00       1.16066E-11
   124    124.00       1.16137E-11
   125    125.00       1.16207E-11
   126    126.00       1.16278E-11
   127    127.00       1.16349E-11
   128    128.00       1.16420E-11
   129    129.00       1.16491E-11
   130    130.00       1.16562E-11
   131    131.00       1.16633E-11
   132    132.00       1.16705E-11
   133    133.00       1.16776E-11
   134    134.00       1.16848E-11
   135    135.00       1.16922E-11
   136    136.00       1.16999E-11
   137    137.00       1.17088E-11
   138    138.00       1.17211E-11
   139    139.00       1.17444E-11
   140    140.00       1.18013E-11
   141    141.00       1.19629E-11
   142    142.00       1.24571E-11
   143    143.00       1.40123E-11
   144    144.00       1.89086E-11
   145    145.00       3.43300E-11
   146    146.00       8.37706E-11
   147    147.00       2.43977E-10
   148    148.00       7.49956E-10
   149    149.00       2.25462E-09
   150    150.00       6.38817E-09
   151    151.00       1.68081E-08
   152    152.00       4.09150E-08
   153    153.00       9.22817E-08
   154    154.00       1.93601E-07
   155    155.00       3.79669E-07
   156    156.00       6.99730E-07
   157    157.00       1.21856E-06
   158    158.00       2.01593E-06
   159    159.00       3.18464E-06
   160    160.00       4.82752E-06
     1    161.00       7.05416E-06
     2    162.00       9.97794E-06
     3    163.00       1.37137E-05
     4    164.00       1.83761E-05
     5    165.00       2.40781E-05
     6    166.00       3.09306E-05
     7    167.00       3.90415E-05
     8    168.00       4.85152E-05
     9    169.00       5.94523E-05
    10    170.00       7.19494E-05
    11    171.00       8.60984E-05
    12    172.00       1.01987E-04
    13    173.00       1.19698E-04
    14    174.00       1.39311E-04
    15    175.00       1.60898E-04
    16    176.00       1.84529E-04
    17    177.00       2.10268E-04
    18    178.00       2.38175E-04
    19    179.00       2.68307E-04
    20    180.00       3.00713E-04
    21    181.00       3.35441E-04
    22    182.00       3.72533E-04
    23    183.00       4.12028E-04
    24    184.00       4.53961E-04
    25    185.00       4.98361E-04
    26    186.00       5.45257E-04
    27    187.00       5.94672E-04
    28    188.00       6.46625E-04
    29    189.00       7.01133E-04
    30    190.00       7.58210E-04
    31    191.00       8.17866E-04
    32    192.00       8.80107E-04
    33    193.00       9.44939E-04
    34    194.00       1.01236E-03
    35    195.00       1.08238E-03
    36    196.00       1.15498E-03
    37    197.00       1.23016E-03
    38    198.00       1.30791E-03
    39    199.00       1.38823E-03
    40    200.00       1.47109E-03
    41    201.00       1.55648E-03
    42    202.00       1.64439E-03
    43    203.00       1.73479E-03
    44    204.00       1.82766E-03
    45    205.00       1.92298E-03
    46    206.00       2.02073E-03
    47    207.00       2.12086E-03
    48    208.00       2.22336E-03
    49    209.00       2.32819E-03
    50    210.00       2.43532E-03
    51    211.00       2.54471E-03
    52    212.00       2.65632E-03
    53    213.00       2.77012E-03
    54    214.00       2.88606E-03
    55    215.00       3.00410E-03
    56    216.00       3.12419E-03
    57    217.00       3.24629E-03
    58    218.00       3.37035E-03
    59    219.00       3.49632E-03
    60    220.00       3.62414E-03
    61    221.00       3.75377E-03
    62    222.00       3.88514E-03
    63    223.00       4.01821E-03
    64    224.00       4.15290E-03
    65    225.00       4.28917E-03
    66    226.00       4.42695E-03
    67    227.00       4.56619E-03
    68    228.00       4.70681E-03
    69    229.00       4.84875E-03
    70    230.00       4.99195E-03
    71    231.00       5.13634E-03
    72    232.00       5.28186E-03
    73    233.00       5.42843E-03
    74    234.00       5.57599E-03
    75    235.00       5.72448E-03
    76    236.00       5.87381E-03
    77    237.00       6.02392E-03
    78    238.00       6.17474E-03
    79    239.00       6.32621E-03
    80    240.00       6.47825E-03
    81    241.00       6.63078E-03
    82    242.00       6.78375E-03
    83    243.00       6.93708E-03
    84    244.00       7.09071E-03
    85    245.00       7.24456E-03
    86    246.00       7.39856E-03
    87    247.00       7.55266E-03
    88    248.00       7.70677E-03
    89    249.00       7.86085E-03
    90    250.00       8.01481E-03
    91    251.00       8.16860E-03
    92    252.00       8.32216E-03
    93    253.00       8.47541E-03
    94    254.00       8.62831E-03
    95    255.00       8.78078E-03
    96    256.00       8.93278E-03
    97    257.00       9.08423E-03
    98    258.00       9.23510E-03
    99    259.00       9.38532E-03
   100    260.00       9.53483E-03
   101    261.00       9.68360E-03
   102    262.00       9.83155E-03
   103    263.00       9.97865E-03
   104    264.00       1.01249E-02
   105    265.00       1.02701E-02
   106    266.00       1.04144E-02
   107    267.00       1.05576E-02
   108    268.00       1.06997E-02
   109    269.00       1.08407E-02
   110    270.00       1.09806E-02
   111    271.00       1.11193E-02
   112    272.00       1.12567E-02
   113    273.00       1.13928E-02
   114    274.00       1.15277E-02
   115    275.00       1.16612E-02
   116    276.00       1.17934E-02
   117    277.00       1.19242E-02
   118    278.00       1.20535E-02
   119    279.00       1.21814E-02
   120    280.00       1.23078E-02
   121    281.00       1.24328E-02
   122    282.00       1.25562E-02
   123    283.00       1.26781E-02
   124    284.00       1.27984E-02
   125    285.00       1.29172E-02
   126    286.00       1.30344E-02
   127    287.00       1.31500E-02
   128    288.00       1.32639E-02
   129    289.00       1.33762E-02
   130    290.00       1.34869E-02
   131    291.00       1.35959E-02
   132    292.00       1.37033E-02
   133    293.00       1.38090E-02
   134    294.00       1.39130E-02
   135    295.00       1.40153E-02
   136    296.00       1.41159E-02
   137    297.00       1.42148E-02
   138    298.00       1.43120E-02
   139    299.00       1.44076E-02
   140    300.00       1.45014E-02
   141    301.00       1.45935E-02
   142    302.00       1.46839E-02
   143    303.00       1.47726E-02
   144    304.00       1.48596E-02
   145    305.00       1.49449E-02
   146    306.00       1.50285E-02
   147    307.00       1.51103E-02
   148    308.00       1.51905E-02
   149    309.00       1.52690E-02
   150    310.00       1.53459E-02
   151    311.00       1.54210E-02
   152    312.00       1.54945E-02
   153    313.00       1.55663E-02
   154    314.00       1.56365E-02
   155    315.00       1.57050E-02
   156    316.00       1.57718E-02
   157    317.00       1.58371E-02
   158    318.00       1.59007E-02
   159    319.00       1.59627E-02
   160    320.00       1.60231E-02
   161    321.00       1.60819E-02
   162    322.00       1.61392E-02
   163    323.00       1.61949E-02
   164    324.00       1.62490E-02
   165    325.00       1.63015E-02
   166    326.00       1.63526E-02
   167    327.00       1.64021E-02
   168    328.00       1.64501E-02
   169    329.00       1.64966E-02
   170    330.00       1.65417E-02
   171    331.00       1.65852E-02
   172    332.00       1.66274E-02
   173    333.00       1.66680E-02
   174    334.00       1.67073E-02
   175    335.00       1.67451E-02
   176    336.00       1.67816E-02
   177    337.00       1.68166E-02
   178    338.00       1.68503E-02
   179    339.00       1.68826E-02
   180    340.00       1.69136E-02
   181    341.00       1.69433E-02
   182    342.00       1.69716E-02
   183    343.00       1.69987E-02
   184    344.00       1.70245E-02
   185    345.00       1.70490E-02
   186    346.00       1.70722E-02
   187    347.00       1.70943E-02
   188    348.00       1.71151E-02
   189    349.00       1.71347E-02
   190    350.00       1.71531E-02
   191    351.00       1.71703E-02
   192    352.00       1.71864E-02
   193    353.00       1.72013E-02
   194    354.00       1.72151E-02
   195    355.00       1.72277E-02
   196    356.00       1.72393E-02
   197    357.00       1.72498E-02
   198    358.00       1.72592E-02
   199    359.00       1.72676E-02
   200    360.00       1.72749E-02
   201    361.00       1.72812E-02
   202    362.00       1.72865E-02
   203    363.00       1.72907E-02
   204    364.00       1.72940E-02
   205    365.00       1.72964E-02
   206    366.00       1.72977E-02
   207    367.00       1.72982E-02
   208    368.00       1.72977E-02
   209    369.00       1.72962E-02
   210    370.00       1.72939E-02
   211    371.00       1.72907E-02
   212    372.00       1.72867E-02
   213    373.00       1.72817E-02
   214    374.00       1.72760E-02
   215    375.00       1.72694E-02
   216    376.00       1.72620E-02
   217    377.00       1.72537E-02
   218    378.00       1.72447E-02
   219    379.00       1.72349E-02
   220    380.00       1.72244E-02
   221    381.00       1.72131E-02
   222    382.00       1.72010E-02
   223    383.00       1.71883E-02
   224    384.00       1.71748E-02
   225    385.00       1.71606E-02
   226    386.00       1.71457E-02
   227    387.00       1.71301E-02
   228    388.00       1.71139E-02
   229    389.00       1.70970E-02
   230    390.00       1.70795E-02
   231    391.00       1.70613E-02
   232    392.00       1.70426E-02
   233    393.00       1.70232E-02
   234    394.00       1.70032E-02
   235    395.00       1.69826E-02
   236    396.00       1.69615E-02
   237    397.00       1.69398E-02
   238    398.00       1.69175E-02
   239    399.00       1.68947E-02
   240    400.00       1.68714E-02
   241    401.00       1.68476E-02
   242    402.00       1.68232E-02
   243    403.00       1.67983E-02
   244    404.00       1.67730E-02
   245    405.00       1.67471E-02
   246    406.00       1.67208E-02
   247    407.00       1.66940E-02
   248    408.00       1.66668E-02
   249    409.00       1.66391E-02
   250    410.00       1.66110E-02
   251    411.00       1.65825E-02
   252    412.00       1.65536E-02
   253    413.00       1.65242E-02
   254    414.00       1.64945E-02
   255    415.00       1.64643E-02
   256    416.00       1.64338E-02
   257    417.00       1.64029E-02
   258    418.00       1.63716E-02
   259    419.00       1.63400E-02
   260    420.00       1.63081E-02
   261    421.00       1.62758E-02
   262    422.00       1.62431E-02
   263    423.00       1.62102E-02
   264    424.00       1.61769E-02
   265    425.00       1.61433E-02
   266    426.00       1.61094E-02
   267    427.00       1.60753E-02
   268    428.00       1.60408E-02
   269    429.00       1.60061E-02
   270    430.00       1.59710E-02
   271    431.00       1.59358E-02
   272    432.00       1.59002E-02
   273    433.00       1.58644E-02
   274    434.00       1.58284E-02
   275    435.00       1.57921E-02
   276    436.00       1.57556E-02
   277    437.00       1.57189E-02
   278    438.00       1.56819E-02
   279    439.00       1.56448E-02
   280    440.00       1.56074E-02
   281    441.00       1.55698E-02
   282    442.00       1.55321E-02
   283    443.00       1.54941E-02
   284    444.00       1.54560E-02
   285    445.00       1.54177E-02
   286    446.00       1.53792E-02
   287    447.00       1.53405E-02
   288    448.00       1.53017E-02
   289    449.00       1.52627E-02
   290    450.00       1.52236E-02
   291    451.00       1.51844E-02
   292    452.00       1.51449E-02
   293    453.00       1.51054E-02
   294    454.00       1.50657E-02
   295    455.00       1.50259E-02
   296    456.00       1.49860E-02
   297    457.00       1.49460E-02
   298    458.00       1.49058E-02
   299    459.00       1.48656E-02
   300    460.00       1.48252E-02
   301    461.00       1.47848E-02
   302    462.00       1.47442E-02
   303    463.00       1.47036E-02
   304    464.00       1.46628E-02
   305    465.00       1.46220E-02
   306    466.00       1.45811E-02
   307    467.00       1.45402E-02
   308    468.00       1.44991E-02
   309    469.00       1.44581E-02
   310    470.00       1.44169E-02
   311    471.00       1.43757E-02
   312    472.00       1.43344E-02
   313    473.00       1.42931E-02
   314    474.00       1.42517E-02
   315    475.00       1.42103E-02
   316    476.00       1.41689E-02
   317    477.00       1.41274E-02
   318    478.00       1.40858E-02
   319    479.00       1.40443E-02
   320    480.00       1.40027E-02
   321    481.00       1.39611E-02
   322    482.00       1.39195E-02
   323    483.00       1.38778E-02
   324    484.00       1.38361E-02
   325    485.00       1.37945E-02
   326    486.00       1.37528E-02
   327    487.00       1.37111E-02
   328    488.00       1.36694E-02
   329    489.00       1.36277E-02
   330    490.00       1.35860E-02
   331    491.00       1.35443E-02
   332    492.00       1.35026E-02
   333    493.00       1.34609E-02
   334    494.00       1.34193E-02
   335    495.00       1.33776E-02
   336    496.00       1.33360E-02
   337    497.00       1.32943E-02
   338    498.00       1.32527E-02
   339    499.00       1.32112E-02
   340    500.00       1.31696E-02
   341    501.00       1.31281E-02
   342    502.00       1.30866E-02
   343    503.00       1.30451E-02
   344    504.00       1.30037E-02
   345    505.00       1.29623E-02
   346    506.00       1.29209E-02
   347    507.00       1.28796E-02
   348    508.00       1.28383E-02
   349    509.00       1.27971E-02
   350    510.00       1.27559E-02
   351    511.00       1.27147E-02
   352    512.00       1.26736E-02
   353    513.00       1.26326E-02
   354    514.00       1.25916E-02
   355    515.00       1.25506E-02
   356    516.00       1.25097E-02
   357    517.00       1.24689E-02
   358    518.00       1.24281E-02
   359    519.00       1.23874E-02
   360    520.00       1.23467E-02
   361    521.00       1.23061E-02
   362    522.00       1.22656E-02
   363    523.00       1.22251E-02
   364    524.00       1.21847E-02
   365    525.00       1.21444E-02
   366    526.00       1.21041E-02
   367    527.00       1.20639E-02
   368    528.00       1.20238E-02
   369    529.00       1.19837E-02
   370    530.00       1.19437E-02
   371    531.00       1.19038E-02
   372    532.00       1.18640E-02
   373    533.00       1.18242E-02
   374    534.00       1.17845E-02
   375    535.00       1.17449E-02
   376    536.00       1.17054E-02
   377    537.00       1.16660E-02
   378    538.00       1.16266E-02
   379    539.00       1.15873E-02
   380    540.00       1.15481E-02
   381    541.00       1.15090E-02
   382    542.00       1.14700E-02
   383    543.00       1.14311E-02
   384    544.00       1.13922E-02
   385    545.00       1.13534E-02
   386    546.00       1.13148E-02
   387    547.00       1.12762E-02
   388    548.00       1.12377E-02
   389    549.00       1.11993E-02
   390    550.00       1.11610E-02
   391    551.00       1.11227E-02
   392    552.00       1.10846E-02
   393    553.00       1.10466E-02
   394    554.00       1.10086E-02
   395    555.00       1.09708E-02
   396    556.00       1.09330E-02
   397    557.00       1.08954E-02
   398    558.00       1.08578E-02
   399    559.00       1.08203E-02
   400    560.00       1.07830E-02
   401    561.00       1.07457E-02
   402    562.00       1.07085E-02
   403    563.00       1.06715E-02
   404    564.00       1.06345E-02
   405    565.00       1.05976E-02
   406    566.00       1.05608E-02
   407    567.00       1.05242E-02
   408    568.00       1.04876E-02
   409    569.00       1.04511E-02
   410    570.00       1.04148E-02
   411    571.00       1.03785E-02
   412    572.00       1.03423E-02
   413    573.00       1.03063E-02
   414    574.00       1.02703E-02
   415    575.00       1.02345E-02
   416    576.00       1.01987E-02
   417    577.00       1.01631E-02
   418    578.00       1.01275E-02
   419    579.00       1.00921E-02
   420    580.00       1.00567E-02
   421    581.00       1.00215E-02
   422    582.00       9.98638E-03
   423    583.00       9.95135E-03
   424    584.00       9.91644E-03
   425    585.00       9.88163E-03
   426    586.00       9.84693E-03
   427    587.00       9.81233E-03
   428    588.00       9.77784E-03
   429    589.00       9.74345E-03
   430    590.00       9.70918E-03
   431    591.00       9.67500E-03
   432    592.00       9.64094E-03
   433    593.00       9.60698E-03
   434    594.00       9.57313E-03
   435    595.00       9.53938E-03
   436    596.00       9.50574E-03
   437    597.00       9.47221E-03
   438    598.00       9.43879E-03
   439    599.00       9.40547E-03
   440    600.00       9.37226E-03
   441    601.00       9.33916E-03
   442    602.00       9.30616E-03
   443    603.00       9.27327E-03
   444    604.00       9.24049E-03
   445    605.00       9.20782E-03
   446    606.00       9.17525E-03
   447    607.00       9.14279E-03
   448    608.00       9.11044E-03
   449    609.00       9.07820E-03
   450    610.00       9.04606E-03
   451    611.00       9.01403E-03
   452    612.00       8.98211E-03
   453    613.00       8.95029E-03
   454    614.00       8.91858E-03
   455    615.00       8.88698E-03
   456    616.00       8.85549E-03
   457    617.00       8.82410E-03
   458    618.00       8.79282E-03
   459    619.00       8.76164E-03
   460    620.00       8.73058E-03
   461    621.00       8.69961E-03
   462    622.00       8.66876E-03
   463    623.00       8.63801E-03
   464    624.00       8.60737E-03
   465    625.00       8.57683E-03
   466    626.00       8.54640E-03
   467    627.00       8.51607E-03
   468    628.00       8.48585E-03
   469    629.00       8.45574E-03
   470    630.00       8.42573E-03
   471    631.00       8.39583E-03
   472    632.00       8.36603E-03
   473    633.00       8.33634E-03
   474    634.00       8.30675E-03
   475    635.00       8.27727E-03
   476    636.00       8.24789E-03
   477    637.00       8.21861E-03
   478    638.00       8.18944E-03
   479    639.00       8.16038E-03
   480    640.00       8.13141E-03
   481    641.00       8.10255E-03
   482    642.00       8.07380E-03
   483    643.00       8.04515E-03
   484    644.00       8.01660E-03
   485    645.00       7.98815E-03
   486    646.00       7.95981E-03
   487    647.00       7.93156E-03
   488    648.00       7.90342E-03
   489    649.00       7.87539E-03
   490    650.00       7.84745E-03
   491    651.00       7.81962E-03
   492    652.00       7.79188E-03
   493    653.00       7.76425E-03
   494    654.00       7.73672E-03
   495    655.00       7.70929E-03
   496    656.00       7.68196E-03
   497    657.00       7.65473E-03
   498    658.00       7.62760E-03
   499    659.00       7.60057E-03
   500    660.00       7.57364E-03
   501    661.00       7.54681E-03
   502    662.00       7.52008E-03
   503    663.00       7.49345E-03
   504    664.00       7.46692E-03
   505    665.00       7.44048E-03
   506    666.00       7.41414E-03
   507    667.00       7.38790E-03
   508    668.00       7.36176E-03
   509    669.00       7.33572E-03
   510    670.00       7.30977E-03
   511    671.00       7.28392E-03
   512    672.00       7.25817E-03
   513    673.00       7.23251E-03
   514    674.00       7.20695E-03
   515    675.00       7.18148E-03
   516    676.00       7.15611E-03
   517    677.00       7.13084E-03
   518    678.00       7.10566E-03
   519    679.00       7.08057E-03
   520    680.00       7.05558E-03
   521    681.00       7.03068E-03
   522    682.00       7.00588E-03
   523    683.00       6.98117E-03
   524    684.00       6.95656E-03
   525    685.00       6.93204E-03
   526    686.00       6.90761E-03
   527    687.00       6.88327E-03
   528    688.00       6.85902E-03
   529    689.00       6.83487E-03
   530    690.00       6.81081E-03
   531    691.00       6.78684E-03
   532    692.00       6.76296E-03
   533    693.00       6.73917E-03
   534    694.00       6.71548E-03
   535    695.00       6.69187E-03
   536    696.00       6.66836E-03
   537    697.00       6.64493E-03
   538    698.00       6.62159E-03
   539    699.00       6.59835E-03
   540    700.00       6.57519E-03
   541    701.00       6.55212E-03
   542    702.00       6.52913E-03
   543    703.00       6.50624E-03
   544    704.00       6.48343E-03
   545    705.00       6.46071E-03
   546    706.00       6.43808E-03
   547    707.00       6.41554E-03
   548    708.00       6.39308E-03
   549    709.00       6.37071E-03
   550    710.00       6.34842E-03
   551    711.00       6.32623E-03
   552    712.00       6.30411E-03
   553    713.00       6.28208E-03
   554    714.00       6.26014E-03
   555    715.00       6.23828E-03
   556    716.00       6.21650E-03
   557    717.00       6.19481E-03
   558    718.00       6.17321E-03
   559    719.00       6.15168E-03
   560    720.00       6.13024E-03
   561    721.00       6.10889E-03
   562    722.00       6.08761E-03
   563    723.00       6.06642E-03
   564    724.00       6.04531E-03
   565    725.00       6.02428E-03
   566    726.00       6.00333E-03
   567    727.00       5.98247E-03
   568    728.00       5.96168E-03
   569    729.00       5.94098E-03
   570    730.00       5.92035E-03
   571    731.00       5.89981E-03
   572    732.00       5.87934E-03
   573    733.00       5.85896E-03
   574    734.00       5.83865E-03
   575    735.00       5.81843E-03
   576    736.00       5.79828E-03
   577    737.00       5.77821E-03
   578    738.00       5.75821E-03
   579    739.00       5.73830E-03
   580    740.00       5.71846E-03
   581    741.00       5.69870E-03
   582    742.00       5.67902E-03
   583    743.00       5.65941E-03
   584    744.00       5.63988E-03
   585    745.00       5.62043E-03
   586    746.00       5.60105E-03
   587    747.00       5.58175E-03
   588    748.00       5.56252E-03
   589    749.00       5.54337E-03
   590    750.00       5.52429E-03
   591    751.00       5.50528E-03
   592    752.00       5.48635E-03
   593    753.00       5.46750E-03
   594    754.00       5.44872E-03
   595    755.00       5.43001E-03
   596    756.00       5.41137E-03
   597    757.00       5.39281E-03
   598    758.00       5.37432E-03
   599    759.00       5.35590E-03
   600    760.00       5.33755E-03
   601    761.00       5.31927E-03
   602    762.00       5.30107E-03
   603    763.00       5.28294E-03
   604    764.00       5.26487E-03
   605    765.00       5.24688E-03
   606    766.00       5.22896E-03
   607    767.00       5.21111E-03
   608    768.00       5.19333E-03
   609    769.00       5.17561E-03
   610    770.00       5.15797E-03
   611    771.00       5.14040E-03
   612    772.00       5.12289E-03
   613    773.00       5.10545E-03
   614    774.00       5.08808E-03
   615    775.00       5.07078E-03
   616    776.00       5.05355E-03
   617    777.00       5.03638E-03
   618    778.00       5.01928E-03
   619    779.00       5.00225E-03
   620    780.00       4.98528E-03
   621    781.00       4.96838E-03
   622    782.00       4.95155E-03
   623    783.00       4.93478E-03
   624    784.00       4.91807E-03
   625    785.00       4.90144E-03
   626    786.00       4.88486E-03
   627    787.00       4.86835E-03
   628    788.00       4.85191E-03
   629    789.00       4.83553E-03
   630    790.00       4.81921E-03
   631    791.00       4.80296E-03
   632    792.00       4.78677E-03
   633    793.00       4.77064E-03
   634    794.00       4.75458E-03
   635    795.00       4.73858E-03
   636    796.00       4.72264E-03
   637    797.00       4.70677E-03
   638    798.00       4.69095E-03
   639    799.00       4.67520E-03
   640    800.00       4.65951E-03
   641    801.00       4.64388E-03
   642    802.00       4.62831E-03
   643    803.00       4.61280E-03
   644    804.00       4.59735E-03
   645    805.00       4.58197E-03
   646    806.00       4.56664E-03
   647    807.00       4.55137E-03
   648    808.00       4.53616E-03
   649    809.00       4.52101E-03
   650    810.00       4.50592E-03
   651    811.00       4.49089E-03
   652    812.00       4.47592E-03
   653    813.00       4.46100E-03
   654    814.00       4.44614E-03
   655    815.00       4.43134E-03
   656    816.00       4.41660E-03
   657    817.00       4.40192E-03
   658    818.00       4.38729E-03
   659    819.00       4.37272E-03
   660    820.00       4.35820E-03
   661    821.00       4.34375E-03
   662    822.00       4.32934E-03
   663    823.00       4.31500E-03
   664    824.00       4.30071E-03
   665    825.00       4.28648E-03
   666    826.00       4.27230E-03
   667    827.00       4.25817E-03
   668    828.00       4.24410E-03
   669    829.00       4.23009E-03
   670    830.00       4.21612E-03
   671    831.00       4.20222E-03
   672    832.00       4.18836E-03
   673    833.00       4.17457E-03
   674    834.00       4.16082E-03
   675    835.00       4.14713E-03
   676    836.00       4.13349E-03
   677    837.00       4.11990E-03
   678    838.00       4.10637E-03
   679    839.00       4.09288E-03
   680    840.00       4.07946E-03
   681    841.00       4.06608E-03
   682    842.00       4.05275E-03
   683    843.00       4.03948E-03
   684    844.00       4.02625E-03
   685    845.00       4.01308E-03
   686    846.00       3.99996E-03
   687    847.00       3.98689E-03
   688    848.00       3.97387E-03
   689    849.00       3.96090E-03
   690    850.00       3.94798E-03
   691    851.00       3.93511E-03
   692    852.00       3.92229E-03
   693    853.00       3.90951E-03
   694    854.00       3.89679E-03
   695    855.00       3.88412E-03
   696    856.00       3.87149E-03
   697    857.00       3.85892E-03
   698    858.00       3.84639E-03
   699    859.00       3.83391E-03
   700    860.00       3.82148E-03
   701    861.00       3.80909E-03
   702    862.00       3.79676E-03
   703    863.00       3.78447E-03
   704    864.00       3.77223E-03
   705    865.00       3.76003E-03
   706    866.00       3.74789E-03
   707    867.00       3.73578E-03
   708    868.00       3.72373E-03
   709    869.00       3.71172E-03
   710    870.00       3.69976E-03
   711    871.00       3.68784E-03
   712    872.00       3.67597E-03
   713    873.00       3.66415E-03
   714    874.00       3.65236E-03
   715    875.00       3.64063E-03
   716    876.00       3.62894E-03
   717    877.00       3.61729E-03
   718    878.00       3.60569E-03
   719    879.00       3.59413E-03
   720    880.00       3.58262E-03
   721    881.00       3.57115E-03
   722    882.00       3.55972E-03
   723    883.00       3.54834E-03
   724    884.00       3.53700E-03
   725    885.00       3.52571E-03
   726    886.00       3.51446E-03
   727    887.00       3.50325E-03
   728    888.00       3.49208E-03
   729    889.00       3.48096E-03
   730    890.00       3.46987E-03
   731    891.00       3.45883E-03
   732    892.00       3.44784E-03
   733    893.00       3.43688E-03
   734    894.00       3.42597E-03
   735    895.00       3.41509E-03
   736    896.00       3.40426E-03
   737    897.00       3.39347E-03
   738    898.00       3.38272E-03
   739    899.00       3.37201E-03
   740    900.00       3.36134E-03
   741    901.00       3.35071E-03
   742    902.00       3.34013E-03
   743    903.00       3.32958E-03
   744    904.00       3.31907E-03
   745    905.00       3.30860E-03
   746    906.00       3.29817E-03
   747    907.00       3.28778E-03
   748    908.00       3.27743E-03
   749    909.00       3.26712E-03
   750    910.00       3.25685E-03
   751    911.00       3.24662E-03
   752    912.00       3.23642E-03
   753    913.00       3.22627E-03
   754    914.00       3.21615E-03
   755    915.00       3.20607E-03
   756    916.00       3.19603E-03
   757    917.00       3.18602E-03
   758    918.00       3.17606E-03
   759    919.00       3.16613E-03
   760    920.00       3.15623E-03
   761    921.00       3.14638E-03
   762    922.00       3.13656E-03
   763    923.00       3.12678E-03
   764    924.00       3.11704E-03
   765    925.00       3.10733E-03
   766    926.00       3.09766E-03
   767    927.00       3.08802E-03
   768    928.00       3.07842E-03
   769    929.00       3.06886E-03
   770    930.00       3.05933E-03
   771    931.00       3.04984E-03
   772    932.00       3.04038E-03
   773    933.00       3.03096E-03
   774    934.00       3.02158E-03
   775    935.00       3.01223E-03
   776    936.00       3.00291E-03
   777    937.00       2.99363E-03
   778    938.00       2.98438E-03
   779    939.00       2.97517E-03
   780    940.00       2.96599E-03
   781    941.00       2.95685E-03
   782    942.00       2.94774E-03
   783    943.00       2.93866E-03
   784    944.00       2.92962E-03
   785    945.00       2.92061E-03
   786    946.00       2.91164E-03
   787    947.00       2.90270E-03
   788    948.00       2.89379E-03
   789    949.00       2.88491E-03
   790    950.00       2.87607E-03
   791    951.00       2.86726E-03
   792    952.00       2.85848E-03
   793    953.00       2.84974E-03
   794    954.00       2.84103E-03
   795    955.00       2.83235E-03
   796    956.00       2.82370E-03
   797    957.00       2.81508E-03
   798    958.00       2.80650E-03
   799    959.00       2.79795E-03
   800    960.00       2.78943E-03
   801    961.00       2.78094E-03
   802    962.00       2.77248E-03
   803    963.00       2.76405E-03
   804    964.00       2.75565E-03
   805    965.00       2.74729E-03
   806    966.00       2.73895E-03
   807    967.00       2.73065E-03
   808    968.00       2.72238E-03
   809    969.00       2.71413E-03
   810    970.00       2.70592E-03
   811    971.00       2.69774E-03
   812    972.00       2.68959E-03
   813    973.00       2.68146E-03
   814    974.00       2.67337E-03
   815    975.00       2.66531E-03
   816    976.00       2.65727E-03
   817    977.00       2.64927E-03
   818    978.00       2.64130E-03
   819    979.00       2.63335E-03
   820    980.00       2.62543E-03
   821    981.00       2.61754E-03
   822    982.00       2.60969E-03
   823    983.00       2.60185E-03
   824    984.00       2.59405E-03
   825    985.00       2.58628E-03
   826    986.00       2.57853E-03
   827    987.00       2.57082E-03
   828    988.00       2.56313E-03
   829    989.00       2.55547E-03
   830    990.00       2.54783E-03
   831    991.00       2.54023E-03
   832    992.00       2.53265E-03
   833    993.00       2.52510E-03
   834    994.00       2.51758E-03
   835    995.00       2.51008E-03
   836    996.00       2.50261E-03
   837    997.00       2.49517E-03
   838    998.00       2.48776E-03
   839    999.00       2.48037E-03
   840    1000.0       2.47301E-03
   841    1001.0       2.46568E-03
   842    1002.0       2.45837E-03
   843    1003.0       2.45109E-03
   844    1004.0       2.44383E-03
   845    1005.0       2.43660E-03
   846    1006.0       2.42940E-03
   847    1007.0       2.42222E-03
   848    1008.0       2.41507E-03
   849    1009.0       2.40795E-03
   850    1010.0       2.40085E-03
   851    1011.0       2.39377E-03
   852    1012.0       2.38673E-03
   853    1013.0       2.37970E-03
   854    1014.0       2.37270E-03
   855    1015.0       2.36573E-03
   856    1016.0       2.35878E-03
   857    1017.0       2.35186E-03
   858    1018.0       2.34496E-03
   859    1019.0       2.33809E-03
   860    1020.0       2.33124E-03
   861    1021.0       2.32442E-03
   862    1022.0       2.31762E-03
   863    1023.0       2.31084E-03
   864    1024.0       2.30409E-03
   865    1025.0       2.29736E-03
   866    1026.0       2.29066E-03
   867    1027.0       2.28398E-03
   868    1028.0       2.27732E-03
   869    1029.0       2.27069E-03
   870    1030.0       2.26408E-03
   871    1031.0       2.25750E-03
   872    1032.0       2.25094E-03
   873    1033.0       2.24440E-03
   874    1034.0       2.23788E-03
   875    1035.0       2.23139E-03
   876    1036.0       2.22492E-03
   877    1037.0       2.21848E-03
   878    1038.0       2.21206E-03
   879    1039.0       2.20566E-03
   880    1040.0       2.19928E-03
   881    1041.0       2.19292E-03
   882    1042.0       2.18659E-03
   883    1043.0       2.18028E-03
   884    1044.0       2.17399E-03
   885    1045.0       2.16773E-03
   886    1046.0       2.16148E-03
   887    1047.0       2.15526E-03
   888    1048.0       2.14906E-03
   889    1049.0       2.14289E-03
   890    1050.0       2.13673E-03
   891    1051.0       2.13060E-03
   892    1052.0       2.12449E-03
   893    1053.0       2.11839E-03
   894    1054.0       2.11233E-03
   895    1055.0       2.10628E-03
   896    1056.0       2.10025E-03
   897    1057.0       2.09424E-03
   898    1058.0       2.08826E-03
   899    1059.0       2.08230E-03
   900    1060.0       2.07635E-03
   901    1061.0       2.07043E-03
   902    1062.0       2.06453E-03
   903    1063.0       2.05865E-03
   904    1064.0       2.05279E-03
   905    1065.0       2.04695E-03
   906    1066.0       2.04113E-03
   907    1067.0       2.03533E-03
   908    1068.0       2.02955E-03
   909    1069.0       2.02380E-03
   910    1070.0       2.01806E-03
   911    1071.0       2.01234E-03
   912    1072.0       2.00664E-03
   913    1073.0       2.00096E-03
   914    1074.0       1.99530E-03
   915    1075.0       1.98966E-03
   916    1076.0       1.98404E-03
   917    1077.0       1.97844E-03
   918    1078.0       1.97286E-03
   919    1079.0       1.96730E-03
   920    1080.0       1.96176E-03
   921    1081.0       1.95624E-03
   922    1082.0       1.95073E-03
   923    1083.0       1.94525E-03
   924    1084.0       1.93978E-03
   925    1085.0       1.93434E-03
   926    1086.0       1.92891E-03
   927    1087.0       1.92350E-03
   928    1088.0       1.91811E-03
   929    1089.0       1.91274E-03
   930    1090.0       1.90738E-03
   931    1091.0       1.90205E-03
   932    1092.0       1.89673E-03
   933    1093.0       1.89144E-03
   934    1094.0       1.88616E-03
   935    1095.0       1.88089E-03
   936    1096.0       1.87565E-03
   937    1097.0       1.87042E-03
   938    1098.0       1.86522E-03
   939    1099.0       1.86003E-03
   940    1100.0       1.85485E-03
   941    1101.0       1.84970E-03
   942    1102.0       1.84456E-03
   943    1103.0       1.83944E-03
   944    1104.0       1.83434E-03
   945    1105.0       1.82926E-03
   946    1106.0       1.82419E-03
   947    1107.0       1.81914E-03
   948    1108.0       1.81411E-03
   949    1109.0       1.80909E-03
   950    1110.0       1.80410E-03
   951    1111.0       1.79912E-03
   952    1112.0       1.79415E-03
   953    1113.0       1.78920E-03
   954    1114.0       1.78427E-03
   955    1115.0       1.77936E-03
   956    1116.0       1.77446E-03
   957    1117.0       1.76958E-03
   958    1118.0       1.76472E-03
   959    1119.0       1.75987E-03
   960    1120.0       1.75504E-03
   961    1121.0       1.75023E-03
   962    1122.0       1.74543E-03
   963    1123.0       1.74065E-03
   964    1124.0       1.73588E-03
   965    1125.0       1.73113E-03
   966    1126.0       1.72640E-03
   967    1127.0       1.72168E-03
   968    1128.0       1.71698E-03
   969    1129.0       1.71229E-03
   970    1130.0       1.70762E-03
   971    1131.0       1.70297E-03
   972    1132.0       1.69833E-03
   973    1133.0       1.69371E-03
   974    1134.0       1.68910E-03
   975    1135.0       1.68451E-03
   976    1136.0       1.67993E-03
   977    1137.0       1.67537E-03
   978    1138.0       1.67083E-03
   979    1139.0       1.66630E-03
   980    1140.0       1.66178E-03
   981    1141.0       1.65728E-03
   982    1142.0       1.65280E-03
   983    1143.0       1.64833E-03
   984    1144.0       1.64387E-03
   985    1145.0       1.63943E-03
   986    1146.0       1.63501E-03
   987    1147.0       1.63060E-03
   988    1148.0       1.62620E-03
   989    1149.0       1.62182E-03
   990    1150.0       1.61745E-03
   991    1151.0       1.61310E-03
   992    1152.0       1.60876E-03
   993    1153.0       1.60444E-03
   994    1154.0       1.60013E-03
   995    1155.0       1.59584E-03
   996    1156.0       1.59156E-03
   997    1157.0       1.58729E-03
   998    1158.0       1.58304E-03
   999    1159.0       1.57880E-03
  1000    1160.0       1.57458E-03
  1001    1161.0       1.57037E-03
  1002    1162.0       1.56617E-03
  1003    1163.0       1.56199E-03
  1004    1164.0       1.55782E-03
  1005    1165.0       1.55367E-03
  1006    1166.0       1.54953E-03
  1007    1167.0       1.54540E-03
  1008    1168.0       1.54129E-03
  1009    1169.0       1.53719E-03
  1010    1170.0       1.53310E-03
  1011    1171.0       1.52903E-03
  1012    1172.0       1.52497E-03
  1013    1173.0       1.52093E-03
  1014    1174.0       1.51690E-03
  1015    1175.0       1.51288E-03
  1016    1176.0       1.50887E-03
  1017    1177.0       1.50488E-03
  1018    1178.0       1.50090E-03
  1019    1179.0       1.49693E-03
  1020    1180.0       1.49298E-03
  1021    1181.0       1.48904E-03
  1022    1182.0       1.48511E-03
  1023    1183.0       1.48119E-03
  1024    1184.0       1.47729E-03
  1025    1185.0       1.47340E-03
  1026    1186.0       1.46953E-03
  1027    1187.0       1.46566E-03
  1028    1188.0       1.46181E-03
  1029    1189.0       1.45797E-03
  1030    1190.0       1.45415E-03
  1031    1191.0       1.45033E-03
  1032    1192.0       1.44653E-03
  1033    1193.0       1.44274E-03
  1034    1194.0       1.43897E-03
  1035    1195.0       1.43520E-03
  1036    1196.0       1.43145E-03
  1037    1197.0       1.42771E-03
  1038    1198.0       1.42398E-03
  1039    1199.0       1.42027E-03
  1040    1200.0       1.41656E-03
  1041    1201.0       1.41287E-03
  1042    1202.0       1.40919E-03
  1043    1203.0       1.40552E-03
  1044    1204.0       1.40187E-03
  1045    1205.0       1.39822E-03
  1046    1206.0       1.39459E-03
  1047    1207.0       1.39097E-03
  1048    1208.0       1.38736E-03
  1049    1209.0       1.38376E-03
  1050    1210.0       1.38018E-03
  1051    1211.0       1.37660E-03
  1052    1212.0       1.37304E-03
  1053    1213.0       1.36949E-03
  1054    1214.0       1.36595E-03
  1055    1215.0       1.36242E-03
  1056    1216.0       1.35890E-03
  1057    1217.0       1.35540E-03
  1058    1218.0       1.35190E-03
  1059    1219.0       1.34842E-03
  1060    1220.0       1.34495E-03
  1061    1221.0       1.34149E-03
  1062    1222.0       1.33804E-03
  1063    1223.0       1.33460E-03
  1064    1224.0       1.33117E-03
  1065    1225.0       1.32776E-03
  1066    1226.0       1.32435E-03
  1067    1227.0       1.32095E-03
  1068    1228.0       1.31757E-03
  1069    1229.0       1.31420E-03
  1070    1230.0       1.31083E-03
  1071    1231.0       1.30748E-03
  1072    1232.0       1.30414E-03
  1073    1233.0       1.30081E-03
  1074    1234.0       1.29749E-03
  1075    1235.0       1.29418E-03
  1076    1236.0       1.29088E-03
  1077    1237.0       1.28759E-03
  1078    1238.0       1.28432E-03
  1079    1239.0       1.28105E-03
  1080    1240.0       1.27779E-03
  1081    1241.0       1.27454E-03
  1082    1242.0       1.27131E-03
  1083    1243.0       1.26808E-03
  1084    1244.0       1.26486E-03
  1085    1245.0       1.26166E-03
  1086    1246.0       1.25846E-03
  1087    1247.0       1.25528E-03
  1088    1248.0       1.25210E-03
  1089    1249.0       1.24893E-03
  1090    1250.0       1.24578E-03
  1091    1251.0       1.24263E-03
  1092    1252.0       1.23950E-03
  1093    1253.0       1.23637E-03
  1094    1254.0       1.23325E-03
  1095    1255.0       1.23015E-03
  1096    1256.0       1.22705E-03
  1097    1257.0       1.22396E-03
  1098    1258.0       1.22089E-03
  1099    1259.0       1.21782E-03
  1100    1260.0       1.21476E-03
  1101    1261.0       1.21171E-03
  1102    1262.0       1.20867E-03
  1103    1263.0       1.20564E-03
  1104    1264.0       1.20262E-03
  1105    1265.0       1.19961E-03
  1106    1266.0       1.19661E-03
  1107    1267.0       1.19362E-03
  1108    1268.0       1.19064E-03
  1109    1269.0       1.18766E-03
  1110    1270.0       1.18470E-03
  1111    1271.0       1.18175E-03
  1112    1272.0       1.17880E-03
  1113    1273.0       1.17586E-03
  1114    1274.0       1.17294E-03
  1115    1275.0       1.17002E-03
  1116    1276.0       1.16711E-03
  1117    1277.0       1.16421E-03
  1118    1278.0       1.16132E-03
  1119    1279.0       1.15844E-03
  1120    1280.0       1.15556E-03
  1121    1281.0       1.15270E-03
  1122    1282.0       1.14984E-03
  1123    1283.0       1.14700E-03
  1124    1284.0       1.14416E-03
  1125    1285.0       1.14133E-03
  1126    1286.0       1.13851E-03
  1127    1287.0       1.13570E-03
  1128    1288.0       1.13290E-03
  1129    1289.0       1.13010E-03
  1130    1290.0       1.12732E-03
  1131    1291.0       1.12454E-03
  1132    1292.0       1.12177E-03
  1133    1293.0       1.11901E-03
  1134    1294.0       1.11626E-03
  1135    1295.0       1.11352E-03
  1136    1296.0       1.11078E-03
  1137    1297.0       1.10806E-03
  1138    1298.0       1.10534E-03
  1139    1299.0       1.10263E-03
  1140    1300.0       1.09993E-03
  1141    1301.0       1.09724E-03
  1142    1302.0       1.09455E-03
  1143    1303.0       1.09188E-03
  1144    1304.0       1.08921E-03
  1145    1305.0       1.08655E-03
  1146    1306.0       1.08389E-03
  1147    1307.0       1.08125E-03
  1148    1308.0       1.07862E-03
  1149    1309.0       1.07599E-03
  1150    1310.0       1.07337E-03
  1151    1311.0       1.07076E-03
  1152    1312.0       1.06815E-03
  1153    1313.0       1.06556E-03
  1154    1314.0       1.06297E-03
  1155    1315.0       1.06039E-03
  1156    1316.0       1.05782E-03
  1157    1317.0       1.05525E-03
  1158    1318.0       1.05270E-03
  1159    1319.0       1.05015E-03
  1160    1320.0       1.04761E-03
  1161    1321.0       1.04507E-03
  1162    1322.0       1.04255E-03
  1163    1323.0       1.04003E-03
  1164    1324.0       1.03752E-03
  1165    1325.0       1.03501E-03
  1166    1326.0       1.03252E-03
  1167    1327.0       1.03003E-03
  1168    1328.0       1.02755E-03
  1169    1329.0       1.02508E-03
  1170    1330.0       1.02261E-03
  1171    1331.0       1.02015E-03
  1172    1332.0       1.01770E-03
  1173    1333.0       1.01526E-03
  1174    1334.0       1.01282E-03
  1175    1335.0       1.01040E-03
  1176    1336.0       1.00797E-03
  1177    1337.0       1.00556E-03
  1178    1338.0       1.00315E-03
  1179    1339.0       1.00075E-03
  1180    1340.0       9.98361E-04
  1181    1341.0       9.95976E-04
  1182    1342.0       9.93598E-04
  1183    1343.0       9.91227E-04
  1184    1344.0       9.88863E-04
  1185    1345.0       9.86506E-04
  1186    1346.0       9.84156E-04
  1187    1347.0       9.81814E-04
  1188    1348.0       9.79478E-04
  1189    1349.0       9.77149E-04
  1190    1350.0       9.74827E-04
  1191    1351.0       9.72512E-04
  1192    1352.0       9.70204E-04
  1193    1353.0       9.67903E-04
  1194    1354.0       9.65608E-04
  1195    1355.0       9.63321E-04
  1196    1356.0       9.61040E-04
  1197    1357.0       9.58766E-04
  1198    1358.0       9.56499E-04
  1199    1359.0       9.54239E-04
  1200    1360.0       9.51985E-04
  1201    1361.0       9.49738E-04
  1202    1362.0       9.47497E-04
  1203    1363.0       9.45263E-04
  1204    1364.0       9.43036E-04
  1205    1365.0       9.40815E-04
  1206    1366.0       9.38601E-04
  1207    1367.0       9.36393E-04
  1208    1368.0       9.34192E-04
  1209    1369.0       9.31998E-04
  1210    1370.0       9.29810E-04
  1211    1371.0       9.27628E-04
  1212    1372.0       9.25453E-04
  1213    1373.0       9.23284E-04
  1214    1374.0       9.21121E-04
  1215    1375.0       9.18965E-04
  1216    1376.0       9.16815E-04
  1217    1377.0       9.14672E-04
  1218    1378.0       9.12535E-04
  1219    1379.0       9.10404E-04
  1220    1380.0       9.08279E-04
  1221    1381.0       9.06161E-04
  1222    1382.0       9.04048E-04
  1223    1383.0       9.01942E-04
  1224    1384.0       8.99843E-04
  1225    1385.0       8.97749E-04
  1226    1386.0       8.95661E-04
  1227    1387.0       8.93580E-04
  1228    1388.0       8.91504E-04
  1229    1389.0       8.89435E-04
  1230    1390.0       8.87372E-04
  1231    1391.0       8.85314E-04
  1232    1392.0       8.83263E-04
  1233    1393.0       8.81217E-04
  1234    1394.0       8.79178E-04
  1235    1395.0       8.77144E-04
  1236    1396.0       8.75117E-04
  1237    1397.0       8.73095E-04
  1238    1398.0       8.71079E-04
  1239    1399.0       8.69069E-04
  1240    1400.0       8.67065E-04
  1241    1401.0       8.65066E-04
  1242    1402.0       8.63074E-04
  1243    1403.0       8.61087E-04
  1244    1404.0       8.59106E-04
  1245    1405.0       8.57130E-04
  1246    1406.0       8.55160E-04
  1247    1407.0       8.53196E-04
  1248    1408.0       8.51238E-04
  1249    1409.0       8.49286E-04
  1250    1410.0       8.47339E-04
  1251    1411.0       8.45397E-04
  1252    1412.0       8.43462E-04
  1253    1413.0       8.41531E-04
  1254    1414.0       8.39607E-04
  1255    1415.0       8.37687E-04
  1256    1416.0       8.35774E-04
  1257    1417.0       8.33866E-04
  1258    1418.0       8.31963E-04
  1259    1419.0       8.30066E-04
  1260    1420.0       8.28174E-04
  1261    1421.0       8.26287E-04
  1262    1422.0       8.24407E-04
  1263    1423.0       8.22531E-04
  1264    1424.0       8.20661E-04
  1265    1425.0       8.18796E-04
  1266    1426.0       8.16936E-04
  1267    1427.0       8.15082E-04
  1268    1428.0       8.13233E-04
  1269    1429.0       8.11389E-04
  1270    1430.0       8.09551E-04
  1271    1431.0       8.07718E-04
  1272    1432.0       8.05890E-04
  1273    1433.0       8.04067E-04
  1274    1434.0       8.02250E-04
  1275    1435.0       8.00437E-04
  1276    1436.0       7.98630E-04
  1277    1437.0       7.96828E-04
  1278    1438.0       7.95031E-04
  1279    1439.0       7.93239E-04
  1280    1440.0       7.91452E-04
  1281    1441.0       7.89670E-04
  1282    1442.0       7.87894E-04
  1283    1443.0       7.86122E-04
  1284    1444.0       7.84355E-04
  1285    1445.0       7.82594E-04
  1286    1446.0       7.80837E-04
  1287    1447.0       7.79085E-04
  1288    1448.0       7.77338E-04
  1289    1449.0       7.75596E-04
  1290    1450.0       7.73860E-04
  1291    1451.0       7.72127E-04
  1292    1452.0       7.70400E-04
  1293    1453.0       7.68678E-04
  1294    1454.0       7.66961E-04
  1295    1455.0       7.65248E-04
  1296    1456.0       7.63540E-04
  1297    1457.0       7.61837E-04
  1298    1458.0       7.60139E-04
  1299    1459.0       7.58445E-04
  1300    1460.0       7.56757E-04
  1301    1461.0       7.55073E-04
  1302    1462.0       7.53394E-04
  1303    1463.0       7.51719E-04
  1304    1464.0       7.50049E-04
  1305    1465.0       7.48384E-04
  1306    1466.0       7.46723E-04
  1307    1467.0       7.45068E-04
  1308    1468.0       7.43416E-04
  1309    1469.0       7.41770E-04
  1310    1470.0       7.40127E-04
  1311    1471.0       7.38490E-04
  1312    1472.0       7.36857E-04
  1313    1473.0       7.35229E-04
  1314    1474.0       7.33605E-04
  1315    1475.0       7.31985E-04
  1316    1476.0       7.30371E-04
  1317    1477.0       7.28760E-04
  1318    1478.0       7.27155E-04
  1319    1479.0       7.25553E-04
  1320    1480.0       7.23956E-04
  1321    1481.0       7.22364E-04
  1322    1482.0       7.20775E-04
  1323    1483.0       7.19192E-04
  1324    1484.0       7.17612E-04
  1325    1485.0       7.16038E-04
  1326    1486.0       7.14467E-04
  1327    1487.0       7.12901E-04
  1328    1488.0       7.11339E-04
  1329    1489.0       7.09781E-04
  1330    1490.0       7.08228E-04
  1331    1491.0       7.06679E-04
  1332    1492.0       7.05134E-04
  1333    1493.0       7.03594E-04
  1334    1494.0       7.02057E-04
  1335    1495.0       7.00525E-04
  1336    1496.0       6.98998E-04
  1337    1497.0       6.97474E-04
  1338    1498.0       6.95954E-04
  1339    1499.0       6.94439E-04
  1340    1500.0       6.92928E-04
