  STEP   TOTAL TIME             LOCATION OF OBSERVATION POINTS (K,I,J)
                      1   1  51
     1    1.0000       1.08028E-11
     2    2.0000       1.43061E-10
     3    3.0000       9.87760E-10
     4    4.0000       4.73845E-09
     5    5.0000       1.77581E-08
     6    6.0000       5.54261E-08
     7    7.0000       1.49992E-07
     8    8.0000       3.61770E-07
     9    9.0000       7.93407E-07
    10    10.000       1.60630E-06
    11    11.000       3.03769E-06
    12    12.000       5.41666E-06
    13    13.000       9.17731E-06
    14    14.000       1.48675E-05
    15    15.000       2.31523E-05
    16    16.000       3.48115E-05
    17    17.000       5.07315E-05
    18    18.000       7.18919E-05
    19    19.000       9.93482E-05
    20    20.000       1.34211E-04
    21    21.000       1.77623E-04
    22    22.000       2.30737E-04
    23    23.000       2.94693E-04
    24    24.000       3.70594E-04
    25    25.000       4.59493E-04
    26    26.000       5.62367E-04
    27    27.000       6.80112E-04
    28    28.000       8.13523E-04
    29    29.000       9.63293E-04
    30    30.000       1.13000E-03
    31    31.000       1.31412E-03
    32    32.000       1.51599E-03
    33    33.000       1.73585E-03
    34    34.000       1.97384E-03
    35    35.000       2.22996E-03
    36    36.000       2.50414E-03
    37    37.000       2.79620E-03
    38    38.000       3.10587E-03
    39    39.000       3.43281E-03
    40    40.000       3.77660E-03
    41    41.000       4.13675E-03
    42    42.000       4.51273E-03
    43    43.000       4.90394E-03
    44    44.000       5.30975E-03
    45    45.000       5.72948E-03
    46    46.000       6.16245E-03
    47    47.000       6.60792E-03
    48    48.000       7.06516E-03
    49    49.000       7.53342E-03
    50    50.000       8.01193E-03
    51    51.000       8.49995E-03
    52    52.000       8.99670E-03
    53    53.000       9.50144E-03
    54    54.000       1.00134E-02
    55    55.000       1.05319E-02
    56    56.000       1.10562E-02
    57    57.000       1.15856E-02
    58    58.000       1.21193E-02
    59    59.000       1.26568E-02
    60    60.000       1.31974E-02
    61    61.000       1.37405E-02
    62    62.000       1.42854E-02
    63    63.000       1.48315E-02
    64    64.000       1.53784E-02
    65    65.000       1.59255E-02
    66    66.000       1.64723E-02
    67    67.000       1.70183E-02
    68    68.000       1.75630E-02
    69    69.000       1.81060E-02
    70    70.000       1.86469E-02
    71    71.000       1.91853E-02
    72    72.000       1.97208E-02
    73    73.000       2.02532E-02
    74    74.000       2.07819E-02
    75    75.000       2.13069E-02
    76    76.000       2.18277E-02
    77    77.000       2.23441E-02
    78    78.000       2.28559E-02
    79    79.000       2.33628E-02
    80    80.000       2.38647E-02
    81    81.000       2.43613E-02
    82    82.000       2.48525E-02
    83    83.000       2.53380E-02
    84    84.000       2.58179E-02
    85    85.000       2.62918E-02
    86    86.000       2.67598E-02
    87    87.000       2.72217E-02
    88    88.000       2.76775E-02
    89    89.000       2.81270E-02
    90    90.000       2.85701E-02
    91    91.000       2.90069E-02
    92    92.000       2.94373E-02
    93    93.000       2.98612E-02
    94    94.000       3.02786E-02
    95    95.000       3.06895E-02
    96    96.000       3.10939E-02
    97    97.000       3.14917E-02
    98    98.000       3.18831E-02
    99    99.000       3.22679E-02
   100    100.00       3.26463E-02
   101    101.00       3.30181E-02
   102    102.00       3.33836E-02
   103    103.00       3.37426E-02
   104    104.00       3.40953E-02
   105    105.00       3.44416E-02
   106    106.00       3.47816E-02
   107    107.00       3.51154E-02
   108    108.00       3.54430E-02
   109    109.00       3.57645E-02
   110    110.00       3.60800E-02
   111    111.00       3.63894E-02
   112    112.00       3.66929E-02
   113    113.00       3.69905E-02
   114    114.00       3.72823E-02
   115    115.00       3.75684E-02
   116    116.00       3.78488E-02
   117    117.00       3.81236E-02
   118    118.00       3.83929E-02
   119    119.00       3.86568E-02
   120    120.00       3.89153E-02
   121    121.00       3.91685E-02
   122    122.00       3.94165E-02
   123    123.00       3.96594E-02
   124    124.00       3.98972E-02
   125    125.00       4.01301E-02
   126    126.00       4.03581E-02
   127    127.00       4.05812E-02
   128    128.00       4.07996E-02
   129    129.00       4.10134E-02
   130    130.00       4.12226E-02
   131    131.00       4.14273E-02
   132    132.00       4.16276E-02
   133    133.00       4.18235E-02
   134    134.00       4.20152E-02
   135    135.00       4.22026E-02
   136    136.00       4.23860E-02
   137    137.00       4.25654E-02
   138    138.00       4.27408E-02
   139    139.00       4.29123E-02
   140    140.00       4.30800E-02
   141    141.00       4.32439E-02
   142    142.00       4.34042E-02
   143    143.00       4.35609E-02
   144    144.00       4.37141E-02
   145    145.00       4.38638E-02
   146    146.00       4.40101E-02
   147    147.00       4.41531E-02
   148    148.00       4.42929E-02
   149    149.00       4.44294E-02
   150    150.00       4.45629E-02
   151    151.00       4.46933E-02
   152    152.00       4.48207E-02
   153    153.00       4.49452E-02
   154    154.00       4.50668E-02
   155    155.00       4.51856E-02
   156    156.00       4.53017E-02
   157    157.00       4.54151E-02
   158    158.00       4.55258E-02
   159    159.00       4.56339E-02
   160    160.00       4.57396E-02
     1    161.00       4.58428E-02
     2    162.00       4.59435E-02
     3    163.00       4.60419E-02
     4    164.00       4.61380E-02
     5    165.00       4.62318E-02
     6    166.00       4.63233E-02
     7    167.00       4.64127E-02
     8    168.00       4.64998E-02
     9    169.00       4.65847E-02
    10    170.00       4.66671E-02
    11    171.00       4.67470E-02
    12    172.00       4.68239E-02
    13    173.00       4.68976E-02
    14    174.00       4.69675E-02
    15    175.00       4.70331E-02
    16    176.00       4.70934E-02
    17    177.00       4.71478E-02
    18    178.00       4.71953E-02
    19    179.00       4.72349E-02
    20    180.00       4.72654E-02
    21    181.00       4.72858E-02
    22    182.00       4.72950E-02
    23    183.00       4.72918E-02
    24    184.00       4.72752E-02
    25    185.00       4.72442E-02
    26    186.00       4.71978E-02
    27    187.00       4.71352E-02
    28    188.00       4.70556E-02
    29    189.00       4.69584E-02
    30    190.00       4.68429E-02
    31    191.00       4.67088E-02
    32    192.00       4.65557E-02
    33    193.00       4.63834E-02
    34    194.00       4.61919E-02
    35    195.00       4.59810E-02
    36    196.00       4.57511E-02
    37    197.00       4.55021E-02
    38    198.00       4.52345E-02
    39    199.00       4.49487E-02
    40    200.00       4.46449E-02
    41    201.00       4.43238E-02
    42    202.00       4.39860E-02
    43    203.00       4.36320E-02
    44    204.00       4.32624E-02
    45    205.00       4.28781E-02
    46    206.00       4.24797E-02
    47    207.00       4.20679E-02
    48    208.00       4.16435E-02
    49    209.00       4.12073E-02
    50    210.00       4.07600E-02
    51    211.00       4.03025E-02
    52    212.00       3.98355E-02
    53    213.00       3.93597E-02
    54    214.00       3.88761E-02
    55    215.00       3.83852E-02
    56    216.00       3.78878E-02
    57    217.00       3.73847E-02
    58    218.00       3.68766E-02
    59    219.00       3.63640E-02
    60    220.00       3.58478E-02
    61    221.00       3.53285E-02
    62    222.00       3.48068E-02
    63    223.00       3.42833E-02
    64    224.00       3.37584E-02
    65    225.00       3.32328E-02
    66    226.00       3.27070E-02
    67    227.00       3.21815E-02
    68    228.00       3.16567E-02
    69    229.00       3.11332E-02
    70    230.00       3.06113E-02
    71    231.00       3.00914E-02
    72    232.00       2.95739E-02
    73    233.00       2.90592E-02
    74    234.00       2.85476E-02
    75    235.00       2.80394E-02
    76    236.00       2.75349E-02
    77    237.00       2.70344E-02
    78    238.00       2.65381E-02
    79    239.00       2.60463E-02
    80    240.00       2.55592E-02
    81    241.00       2.50770E-02
    82    242.00       2.45999E-02
    83    243.00       2.41280E-02
    84    244.00       2.36615E-02
    85    245.00       2.32006E-02
    86    246.00       2.27453E-02
    87    247.00       2.22958E-02
    88    248.00       2.18521E-02
    89    249.00       2.14144E-02
    90    250.00       2.09827E-02
    91    251.00       2.05571E-02
    92    252.00       2.01377E-02
    93    253.00       1.97244E-02
    94    254.00       1.93174E-02
    95    255.00       1.89166E-02
    96    256.00       1.85221E-02
    97    257.00       1.81338E-02
    98    258.00       1.77519E-02
    99    259.00       1.73762E-02
   100    260.00       1.70068E-02
   101    261.00       1.66436E-02
   102    262.00       1.62866E-02
   103    263.00       1.59359E-02
   104    264.00       1.55913E-02
   105    265.00       1.52529E-02
   106    266.00       1.49205E-02
   107    267.00       1.45942E-02
   108    268.00       1.42738E-02
   109    269.00       1.39594E-02
   110    270.00       1.36509E-02
   111    271.00       1.33483E-02
   112    272.00       1.30514E-02
   113    273.00       1.27602E-02
   114    274.00       1.24746E-02
   115    275.00       1.21947E-02
   116    276.00       1.19202E-02
   117    277.00       1.16512E-02
   118    278.00       1.13876E-02
   119    279.00       1.11292E-02
   120    280.00       1.08761E-02
   121    281.00       1.06281E-02
   122    282.00       1.03852E-02
   123    283.00       1.01473E-02
   124    284.00       9.91437E-03
   125    285.00       9.68625E-03
   126    286.00       9.46290E-03
   127    287.00       9.24425E-03
   128    288.00       9.03023E-03
   129    289.00       8.82074E-03
   130    290.00       8.61573E-03
   131    291.00       8.41511E-03
   132    292.00       8.21880E-03
   133    293.00       8.02674E-03
   134    294.00       7.83884E-03
   135    295.00       7.65503E-03
   136    296.00       7.47525E-03
   137    297.00       7.29940E-03
   138    298.00       7.12743E-03
   139    299.00       6.95925E-03
   140    300.00       6.79480E-03
   141    301.00       6.63401E-03
   142    302.00       6.47680E-03
   143    303.00       6.32311E-03
   144    304.00       6.17287E-03
   145    305.00       6.02601E-03
   146    306.00       5.88246E-03
   147    307.00       5.74216E-03
   148    308.00       5.60505E-03
   149    309.00       5.47105E-03
   150    310.00       5.34010E-03
   151    311.00       5.21215E-03
   152    312.00       5.08713E-03
   153    313.00       4.96498E-03
   154    314.00       4.84564E-03
   155    315.00       4.72905E-03
   156    316.00       4.61515E-03
   157    317.00       4.50390E-03
   158    318.00       4.39522E-03
   159    319.00       4.28907E-03
   160    320.00       4.18539E-03
   161    321.00       4.08412E-03
   162    322.00       3.98523E-03
   163    323.00       3.88865E-03
   164    324.00       3.79434E-03
   165    325.00       3.70224E-03
   166    326.00       3.61230E-03
   167    327.00       3.52449E-03
   168    328.00       3.43875E-03
   169    329.00       3.35503E-03
   170    330.00       3.27330E-03
   171    331.00       3.19350E-03
   172    332.00       3.11560E-03
   173    333.00       3.03954E-03
   174    334.00       2.96530E-03
   175    335.00       2.89282E-03
   176    336.00       2.82208E-03
   177    337.00       2.75302E-03
   178    338.00       2.68562E-03
   179    339.00       2.61982E-03
   180    340.00       2.55561E-03
   181    341.00       2.49293E-03
   182    342.00       2.43176E-03
   183    343.00       2.37206E-03
   184    344.00       2.31380E-03
   185    345.00       2.25694E-03
   186    346.00       2.20145E-03
   187    347.00       2.14730E-03
   188    348.00       2.09446E-03
   189    349.00       2.04289E-03
   190    350.00       1.99257E-03
   191    351.00       1.94347E-03
   192    352.00       1.89556E-03
   193    353.00       1.84882E-03
   194    354.00       1.80321E-03
   195    355.00       1.75870E-03
   196    356.00       1.71528E-03
   197    357.00       1.67291E-03
   198    358.00       1.63158E-03
   199    359.00       1.59125E-03
   200    360.00       1.55191E-03
   201    361.00       1.51352E-03
   202    362.00       1.47608E-03
   203    363.00       1.43954E-03
   204    364.00       1.40390E-03
   205    365.00       1.36914E-03
   206    366.00       1.33522E-03
   207    367.00       1.30213E-03
   208    368.00       1.26986E-03
   209    369.00       1.23837E-03
   210    370.00       1.20766E-03
   211    371.00       1.17770E-03
   212    372.00       1.14848E-03
   213    373.00       1.11997E-03
   214    374.00       1.09216E-03
   215    375.00       1.06504E-03
   216    376.00       1.03859E-03
   217    377.00       1.01279E-03
   218    378.00       9.87617E-04
   219    379.00       9.63069E-04
   220    380.00       9.39125E-04
   221    381.00       9.15773E-04
   222    382.00       8.92996E-04
   223    383.00       8.70780E-04
   224    384.00       8.49114E-04
   225    385.00       8.27982E-04
   226    386.00       8.07372E-04
   227    387.00       7.87271E-04
   228    388.00       7.67667E-04
   229    389.00       7.48548E-04
   230    390.00       7.29902E-04
   231    391.00       7.11717E-04
   232    392.00       6.93982E-04
   233    393.00       6.76687E-04
   234    394.00       6.59820E-04
   235    395.00       6.43370E-04
   236    396.00       6.27328E-04
   237    397.00       6.11684E-04
   238    398.00       5.96428E-04
   239    399.00       5.81550E-04
   240    400.00       5.67041E-04
   241    401.00       5.52892E-04
   242    402.00       5.39094E-04
   243    403.00       5.25639E-04
   244    404.00       5.12519E-04
   245    405.00       4.99723E-04
   246    406.00       4.87246E-04
   247    407.00       4.75079E-04
   248    408.00       4.63215E-04
   249    409.00       4.51645E-04
   250    410.00       4.40363E-04
   251    411.00       4.29362E-04
   252    412.00       4.18634E-04
   253    413.00       4.08173E-04
   254    414.00       3.97973E-04
   255    415.00       3.88027E-04
   256    416.00       3.78328E-04
   257    417.00       3.68871E-04
   258    418.00       3.59649E-04
   259    419.00       3.50657E-04
   260    420.00       3.41889E-04
   261    421.00       3.33339E-04
   262    422.00       3.25003E-04
   263    423.00       3.16874E-04
   264    424.00       3.08948E-04
   265    425.00       3.01220E-04
   266    426.00       2.93684E-04
   267    427.00       2.86336E-04
   268    428.00       2.79172E-04
   269    429.00       2.72186E-04
   270    430.00       2.65375E-04
   271    431.00       2.58733E-04
   272    432.00       2.52258E-04
   273    433.00       2.45944E-04
   274    434.00       2.39788E-04
   275    435.00       2.33785E-04
   276    436.00       2.27932E-04
   277    437.00       2.22226E-04
   278    438.00       2.16662E-04
   279    439.00       2.11237E-04
   280    440.00       2.05947E-04
   281    441.00       2.00790E-04
   282    442.00       1.95761E-04
   283    443.00       1.90859E-04
   284    444.00       1.86078E-04
   285    445.00       1.81418E-04
   286    446.00       1.76873E-04
   287    447.00       1.72443E-04
   288    448.00       1.68123E-04
   289    449.00       1.63911E-04
   290    450.00       1.59804E-04
   291    451.00       1.55800E-04
   292    452.00       1.51897E-04
   293    453.00       1.48091E-04
   294    454.00       1.44380E-04
   295    455.00       1.40762E-04
   296    456.00       1.37234E-04
   297    457.00       1.33795E-04
   298    458.00       1.30442E-04
   299    459.00       1.27173E-04
   300    460.00       1.23985E-04
   301    461.00       1.20877E-04
   302    462.00       1.17848E-04
   303    463.00       1.14894E-04
   304    464.00       1.12013E-04
   305    465.00       1.09205E-04
   306    466.00       1.06468E-04
   307    467.00       1.03799E-04
   308    468.00       1.01196E-04
   309    469.00       9.86592E-05
   310    470.00       9.61856E-05
   311    471.00       9.37739E-05
   312    472.00       9.14227E-05
   313    473.00       8.91303E-05
   314    474.00       8.68953E-05
   315    475.00       8.47163E-05
   316    476.00       8.25920E-05
   317    477.00       8.05208E-05
   318    478.00       7.85015E-05
   319    479.00       7.65328E-05
   320    480.00       7.46135E-05
   321    481.00       7.27422E-05
   322    482.00       7.09178E-05
   323    483.00       6.91392E-05
   324    484.00       6.74051E-05
   325    485.00       6.57144E-05
   326    486.00       6.40661E-05
   327    487.00       6.24592E-05
   328    488.00       6.08925E-05
   329    489.00       5.93651E-05
   330    490.00       5.78759E-05
   331    491.00       5.64241E-05
   332    492.00       5.50087E-05
   333    493.00       5.36288E-05
   334    494.00       5.22834E-05
   335    495.00       5.09718E-05
   336    496.00       4.96931E-05
   337    497.00       4.84464E-05
   338    498.00       4.72310E-05
   339    499.00       4.60460E-05
   340    500.00       4.48908E-05
   341    501.00       4.37645E-05
   342    502.00       4.26665E-05
   343    503.00       4.15960E-05
   344    504.00       4.05524E-05
   345    505.00       3.95349E-05
   346    506.00       3.85429E-05
   347    507.00       3.75759E-05
   348    508.00       3.66330E-05
   349    509.00       3.57138E-05
   350    510.00       3.48177E-05
   351    511.00       3.39440E-05
   352    512.00       3.30923E-05
   353    513.00       3.22619E-05
   354    514.00       3.14523E-05
   355    515.00       3.06631E-05
   356    516.00       2.98936E-05
   357    517.00       2.91435E-05
   358    518.00       2.84121E-05
   359    519.00       2.76991E-05
   360    520.00       2.70040E-05
   361    521.00       2.63264E-05
   362    522.00       2.56657E-05
   363    523.00       2.50216E-05
   364    524.00       2.43937E-05
   365    525.00       2.37815E-05
   366    526.00       2.31846E-05
   367    527.00       2.26028E-05
   368    528.00       2.20355E-05
   369    529.00       2.14825E-05
   370    530.00       2.09434E-05
   371    531.00       2.04177E-05
   372    532.00       1.99053E-05
   373    533.00       1.94057E-05
   374    534.00       1.89187E-05
   375    535.00       1.84438E-05
   376    536.00       1.79809E-05
   377    537.00       1.75296E-05
   378    538.00       1.70897E-05
   379    539.00       1.66607E-05
   380    540.00       1.62426E-05
   381    541.00       1.58349E-05
   382    542.00       1.54374E-05
   383    543.00       1.50500E-05
   384    544.00       1.46722E-05
   385    545.00       1.43040E-05
   386    546.00       1.39449E-05
   387    547.00       1.35949E-05
   388    548.00       1.32537E-05
   389    549.00       1.29210E-05
   390    550.00       1.25967E-05
   391    551.00       1.22805E-05
   392    552.00       1.19722E-05
   393    553.00       1.16717E-05
   394    554.00       1.13788E-05
   395    555.00       1.10931E-05
   396    556.00       1.08147E-05
   397    557.00       1.05432E-05
   398    558.00       1.02786E-05
   399    559.00       1.00206E-05
   400    560.00       9.76904E-06
   401    561.00       9.52382E-06
   402    562.00       9.28475E-06
   403    563.00       9.05169E-06
   404    564.00       8.82448E-06
   405    565.00       8.60296E-06
   406    566.00       8.38701E-06
   407    567.00       8.17648E-06
   408    568.00       7.97123E-06
   409    569.00       7.77113E-06
   410    570.00       7.57605E-06
   411    571.00       7.38587E-06
   412    572.00       7.20047E-06
   413    573.00       7.01972E-06
   414    574.00       6.84350E-06
   415    575.00       6.67171E-06
   416    576.00       6.50423E-06
   417    577.00       6.34095E-06
   418    578.00       6.18178E-06
   419    579.00       6.02659E-06
   420    580.00       5.87530E-06
   421    581.00       5.72781E-06
   422    582.00       5.58403E-06
   423    583.00       5.44385E-06
   424    584.00       5.30719E-06
   425    585.00       5.17396E-06
   426    586.00       5.04407E-06
   427    587.00       4.91744E-06
   428    588.00       4.79400E-06
   429    589.00       4.67365E-06
   430    590.00       4.55632E-06
   431    591.00       4.44194E-06
   432    592.00       4.33043E-06
   433    593.00       4.22172E-06
   434    594.00       4.11574E-06
   435    595.00       4.01241E-06
   436    596.00       3.91168E-06
   437    597.00       3.81348E-06
   438    598.00       3.71775E-06
   439    599.00       3.62442E-06
   440    600.00       3.53343E-06
   441    601.00       3.44472E-06
   442    602.00       3.35824E-06
   443    603.00       3.27394E-06
   444    604.00       3.19175E-06
   445    605.00       3.11162E-06
   446    606.00       3.03350E-06
   447    607.00       2.95735E-06
   448    608.00       2.88310E-06
   449    609.00       2.81072E-06
   450    610.00       2.74016E-06
   451    611.00       2.67137E-06
   452    612.00       2.60431E-06
   453    613.00       2.53893E-06
   454    614.00       2.47519E-06
   455    615.00       2.41305E-06
   456    616.00       2.35247E-06
   457    617.00       2.29341E-06
   458    618.00       2.23583E-06
   459    619.00       2.17970E-06
   460    620.00       2.12498E-06
   461    621.00       2.07163E-06
   462    622.00       2.01962E-06
   463    623.00       1.96892E-06
   464    624.00       1.91949E-06
   465    625.00       1.87130E-06
   466    626.00       1.82432E-06
   467    627.00       1.77852E-06
   468    628.00       1.73387E-06
   469    629.00       1.69034E-06
   470    630.00       1.64790E-06
   471    631.00       1.60653E-06
   472    632.00       1.56620E-06
   473    633.00       1.52688E-06
   474    634.00       1.48855E-06
   475    635.00       1.45118E-06
   476    636.00       1.41474E-06
   477    637.00       1.37923E-06
   478    638.00       1.34460E-06
   479    639.00       1.31084E-06
   480    640.00       1.27793E-06
   481    641.00       1.24585E-06
   482    642.00       1.21457E-06
   483    643.00       1.18408E-06
   484    644.00       1.15435E-06
   485    645.00       1.12537E-06
   486    646.00       1.09712E-06
   487    647.00       1.06957E-06
   488    648.00       1.04272E-06
   489    649.00       1.01654E-06
   490    650.00       9.91022E-07
   491    651.00       9.66142E-07
   492    652.00       9.41886E-07
   493    653.00       9.18239E-07
   494    654.00       8.95186E-07
   495    655.00       8.72711E-07
   496    656.00       8.50801E-07
   497    657.00       8.29441E-07
   498    658.00       8.08617E-07
   499    659.00       7.88316E-07
   500    660.00       7.68525E-07
   501    661.00       7.49230E-07
   502    662.00       7.30420E-07
   503    663.00       7.12082E-07
   504    664.00       6.94205E-07
   505    665.00       6.76776E-07
   506    666.00       6.59785E-07
   507    667.00       6.43220E-07
   508    668.00       6.27072E-07
   509    669.00       6.11328E-07
   510    670.00       5.95981E-07
   511    671.00       5.81018E-07
   512    672.00       5.66431E-07
   513    673.00       5.52210E-07
   514    674.00       5.38346E-07
   515    675.00       5.24830E-07
   516    676.00       5.11654E-07
   517    677.00       4.98808E-07
   518    678.00       4.86285E-07
   519    679.00       4.74076E-07
   520    680.00       4.62174E-07
   521    681.00       4.50571E-07
   522    682.00       4.39259E-07
   523    683.00       4.28231E-07
   524    684.00       4.17479E-07
   525    685.00       4.06998E-07
   526    686.00       3.96780E-07
   527    687.00       3.86818E-07
   528    688.00       3.77107E-07
   529    689.00       3.67639E-07
   530    690.00       3.58409E-07
   531    691.00       3.49411E-07
   532    692.00       3.40638E-07
   533    693.00       3.32086E-07
   534    694.00       3.23749E-07
   535    695.00       3.15621E-07
   536    696.00       3.07697E-07
   537    697.00       2.99972E-07
   538    698.00       2.92441E-07
   539    699.00       2.85099E-07
   540    700.00       2.77941E-07
   541    701.00       2.70963E-07
   542    702.00       2.64160E-07
   543    703.00       2.57528E-07
   544    704.00       2.51062E-07
   545    705.00       2.44759E-07
   546    706.00       2.38614E-07
   547    707.00       2.32623E-07
   548    708.00       2.26783E-07
   549    709.00       2.21089E-07
   550    710.00       2.15539E-07
   551    711.00       2.10127E-07
   552    712.00       2.04852E-07
   553    713.00       1.99709E-07
   554    714.00       1.94695E-07
   555    715.00       1.89807E-07
   556    716.00       1.85041E-07
   557    717.00       1.80396E-07
   558    718.00       1.75867E-07
   559    719.00       1.71451E-07
   560    720.00       1.67147E-07
   561    721.00       1.62950E-07
   562    722.00       1.58859E-07
   563    723.00       1.54871E-07
   564    724.00       1.50983E-07
   565    725.00       1.47192E-07
   566    726.00       1.43497E-07
   567    727.00       1.39894E-07
   568    728.00       1.36382E-07
   569    729.00       1.32958E-07
   570    730.00       1.29620E-07
   571    731.00       1.26365E-07
   572    732.00       1.23193E-07
   573    733.00       1.20100E-07
   574    734.00       1.17085E-07
   575    735.00       1.14145E-07
   576    736.00       1.11279E-07
   577    737.00       1.08485E-07
   578    738.00       1.05762E-07
   579    739.00       1.03106E-07
   580    740.00       1.00518E-07
   581    741.00       9.79941E-08
   582    742.00       9.55339E-08
   583    743.00       9.31354E-08
   584    744.00       9.07971E-08
   585    745.00       8.85175E-08
   586    746.00       8.62951E-08
   587    747.00       8.41286E-08
   588    748.00       8.20164E-08
   589    749.00       7.99573E-08
   590    750.00       7.79499E-08
   591    751.00       7.59928E-08
   592    752.00       7.40849E-08
   593    753.00       7.22249E-08
   594    754.00       7.04116E-08
   595    755.00       6.86438E-08
   596    756.00       6.69204E-08
   597    757.00       6.52403E-08
   598    758.00       6.36023E-08
   599    759.00       6.20055E-08
   600    760.00       6.04488E-08
   601    761.00       5.89311E-08
   602    762.00       5.74516E-08
   603    763.00       5.60092E-08
   604    764.00       5.46030E-08
   605    765.00       5.32321E-08
   606    766.00       5.18956E-08
   607    767.00       5.05927E-08
   608    768.00       4.93225E-08
   609    769.00       4.80842E-08
   610    770.00       4.68770E-08
   611    771.00       4.57001E-08
   612    772.00       4.45527E-08
   613    773.00       4.34342E-08
   614    774.00       4.23437E-08
   615    775.00       4.12806E-08
   616    776.00       4.02442E-08
   617    777.00       3.92338E-08
   618    778.00       3.82488E-08
   619    779.00       3.72885E-08
   620    780.00       3.63523E-08
   621    781.00       3.54396E-08
   622    782.00       3.45499E-08
   623    783.00       3.36824E-08
   624    784.00       3.28368E-08
   625    785.00       3.20124E-08
   626    786.00       3.12087E-08
   627    787.00       3.04251E-08
   628    788.00       2.96613E-08
   629    789.00       2.89166E-08
   630    790.00       2.81906E-08
   631    791.00       2.74828E-08
   632    792.00       2.67928E-08
   633    793.00       2.61201E-08
   634    794.00       2.54644E-08
   635    795.00       2.48250E-08
   636    796.00       2.42018E-08
   637    797.00       2.35942E-08
   638    798.00       2.30018E-08
   639    799.00       2.24243E-08
   640    800.00       2.18613E-08
   641    801.00       2.13124E-08
   642    802.00       2.07774E-08
   643    803.00       2.02557E-08
   644    804.00       1.97472E-08
   645    805.00       1.92514E-08
   646    806.00       1.87681E-08
   647    807.00       1.82969E-08
   648    808.00       1.78375E-08
   649    809.00       1.73897E-08
   650    810.00       1.69531E-08
   651    811.00       1.65274E-08
   652    812.00       1.61125E-08
   653    813.00       1.57080E-08
   654    814.00       1.53136E-08
   655    815.00       1.49291E-08
   656    816.00       1.45543E-08
   657    817.00       1.41889E-08
   658    818.00       1.38327E-08
   659    819.00       1.34854E-08
   660    820.00       1.31468E-08
   661    821.00       1.28167E-08
   662    822.00       1.24950E-08
   663    823.00       1.21813E-08
   664    824.00       1.18754E-08
   665    825.00       1.15773E-08
   666    826.00       1.12866E-08
   667    827.00       1.10032E-08
   668    828.00       1.07270E-08
   669    829.00       1.04577E-08
   670    830.00       1.01951E-08
   671    831.00       9.93916E-09
   672    832.00       9.68962E-09
   673    833.00       9.44635E-09
   674    834.00       9.20918E-09
   675    835.00       8.97797E-09
   676    836.00       8.75257E-09
   677    837.00       8.53282E-09
   678    838.00       8.31859E-09
   679    839.00       8.10974E-09
   680    840.00       7.90614E-09
   681    841.00       7.70764E-09
   682    842.00       7.51413E-09
   683    843.00       7.32548E-09
   684    844.00       7.14156E-09
   685    845.00       6.96226E-09
   686    846.00       6.78746E-09
   687    847.00       6.61706E-09
   688    848.00       6.45092E-09
   689    849.00       6.28896E-09
   690    850.00       6.13107E-09
   691    851.00       5.97714E-09
   692    852.00       5.82708E-09
   693    853.00       5.68078E-09
   694    854.00       5.53816E-09
   695    855.00       5.39911E-09
   696    856.00       5.26356E-09
   697    857.00       5.13141E-09
   698    858.00       5.00258E-09
   699    859.00       4.87698E-09
   700    860.00       4.75454E-09
   701    861.00       4.63517E-09
   702    862.00       4.51880E-09
   703    863.00       4.40535E-09
   704    864.00       4.29475E-09
   705    865.00       4.18692E-09
   706    866.00       4.08180E-09
   707    867.00       3.97932E-09
   708    868.00       3.87942E-09
   709    869.00       3.78202E-09
   710    870.00       3.68706E-09
   711    871.00       3.59450E-09
   712    872.00       3.50425E-09
   713    873.00       3.41627E-09
   714    874.00       3.33050E-09
   715    875.00       3.24688E-09
   716    876.00       3.16537E-09
   717    877.00       3.08589E-09
   718    878.00       3.00842E-09
   719    879.00       2.93289E-09
   720    880.00       2.85925E-09
   721    881.00       2.78747E-09
   722    882.00       2.71748E-09
   723    883.00       2.64926E-09
   724    884.00       2.58274E-09
   725    885.00       2.51790E-09
   726    886.00       2.45468E-09
   727    887.00       2.39306E-09
   728    888.00       2.33298E-09
   729    889.00       2.27440E-09
   730    890.00       2.21730E-09
   731    891.00       2.16163E-09
   732    892.00       2.10736E-09
   733    893.00       2.05445E-09
   734    894.00       2.00287E-09
   735    895.00       1.95259E-09
   736    896.00       1.90357E-09
   737    897.00       1.85577E-09
   738    898.00       1.80918E-09
   739    899.00       1.76376E-09
   740    900.00       1.71948E-09
   741    901.00       1.67631E-09
   742    902.00       1.63422E-09
   743    903.00       1.59319E-09
   744    904.00       1.55319E-09
   745    905.00       1.51420E-09
   746    906.00       1.47618E-09
   747    907.00       1.43912E-09
   748    908.00       1.40299E-09
   749    909.00       1.36776E-09
   750    910.00       1.33342E-09
   751    911.00       1.29995E-09
   752    912.00       1.26731E-09
   753    913.00       1.23549E-09
   754    914.00       1.20447E-09
   755    915.00       1.17423E-09
   756    916.00       1.14475E-09
   757    917.00       1.11601E-09
   758    918.00       1.08799E-09
   759    919.00       1.06068E-09
   760    920.00       1.03405E-09
   761    921.00       1.00809E-09
   762    922.00       9.82777E-10
   763    923.00       9.58103E-10
   764    924.00       9.34049E-10
   765    925.00       9.10598E-10
   766    926.00       8.87736E-10
   767    927.00       8.65448E-10
   768    928.00       8.43719E-10
   769    929.00       8.22536E-10
   770    930.00       8.01886E-10
   771    931.00       7.81753E-10
   772    932.00       7.62126E-10
   773    933.00       7.42992E-10
   774    934.00       7.24338E-10
   775    935.00       7.06153E-10
   776    936.00       6.88424E-10
   777    937.00       6.71140E-10
   778    938.00       6.54290E-10
   779    939.00       6.37863E-10
   780    940.00       6.21849E-10
   781    941.00       6.06236E-10
   782    942.00       5.91016E-10
   783    943.00       5.76177E-10
   784    944.00       5.61712E-10
   785    945.00       5.47609E-10
   786    946.00       5.33860E-10
   787    947.00       5.20457E-10
   788    948.00       5.07390E-10
   789    949.00       4.94651E-10
   790    950.00       4.82233E-10
   791    951.00       4.70125E-10
   792    952.00       4.58322E-10
   793    953.00       4.46816E-10
   794    954.00       4.35598E-10
   795    955.00       4.24661E-10
   796    956.00       4.14000E-10
   797    957.00       4.03605E-10
   798    958.00       3.93472E-10
   799    959.00       3.83594E-10
   800    960.00       3.73963E-10
   801    961.00       3.64574E-10
   802    962.00       3.55421E-10
   803    963.00       3.46498E-10
   804    964.00       3.37798E-10
   805    965.00       3.29317E-10
   806    966.00       3.21049E-10
   807    967.00       3.12989E-10
   808    968.00       3.05131E-10
   809    969.00       2.97470E-10
   810    970.00       2.90002E-10
   811    971.00       2.82721E-10
   812    972.00       2.75623E-10
   813    973.00       2.68703E-10
   814    974.00       2.61957E-10
   815    975.00       2.55380E-10
   816    976.00       2.48968E-10
   817    977.00       2.42718E-10
   818    978.00       2.36624E-10
   819    979.00       2.30683E-10
   820    980.00       2.24891E-10
   821    981.00       2.19245E-10
   822    982.00       2.13741E-10
   823    983.00       2.08374E-10
   824    984.00       2.03143E-10
   825    985.00       1.98043E-10
   826    986.00       1.93070E-10
   827    987.00       1.88223E-10
   828    988.00       1.83498E-10
   829    989.00       1.78891E-10
   830    990.00       1.74399E-10
   831    991.00       1.70021E-10
   832    992.00       1.65752E-10
   833    993.00       1.61591E-10
   834    994.00       1.57534E-10
   835    995.00       1.53579E-10
   836    996.00       1.49723E-10
   837    997.00       1.45964E-10
   838    998.00       1.42299E-10
   839    999.00       1.38727E-10
   840    1000.0       1.35244E-10
   841    1001.0       1.31848E-10
   842    1002.0       1.28538E-10
   843    1003.0       1.25311E-10
   844    1004.0       1.22165E-10
   845    1005.0       1.19097E-10
   846    1006.0       1.16107E-10
   847    1007.0       1.13192E-10
   848    1008.0       1.10350E-10
   849    1009.0       1.07580E-10
   850    1010.0       1.04879E-10
   851    1011.0       1.02246E-10
   852    1012.0       9.96788E-11
   853    1013.0       9.71762E-11
   854    1014.0       9.47365E-11
   855    1015.0       9.23580E-11
   856    1016.0       9.00392E-11
   857    1017.0       8.77786E-11
   858    1018.0       8.55748E-11
   859    1019.0       8.34264E-11
   860    1020.0       8.13318E-11
   861    1021.0       7.92899E-11
   862    1022.0       7.72992E-11
   863    1023.0       7.53585E-11
   864    1024.0       7.34665E-11
   865    1025.0       7.16220E-11
   866    1026.0       6.98238E-11
   867    1027.0       6.80708E-11
   868    1028.0       6.63618E-11
   869    1029.0       6.46957E-11
   870    1030.0       6.30714E-11
   871    1031.0       6.14879E-11
   872    1032.0       5.99442E-11
   873    1033.0       5.84392E-11
   874    1034.0       5.69720E-11
   875    1035.0       5.55416E-11
   876    1036.0       5.41472E-11
   877    1037.0       5.27877E-11
   878    1038.0       5.14624E-11
   879    1039.0       5.01704E-11
   880    1040.0       4.89108E-11
   881    1041.0       4.76828E-11
   882    1042.0       4.64856E-11
   883    1043.0       4.53186E-11
   884    1044.0       4.41808E-11
   885    1045.0       4.30715E-11
   886    1046.0       4.19902E-11
   887    1047.0       4.09360E-11
   888    1048.0       3.99082E-11
   889    1049.0       3.89062E-11
   890    1050.0       3.79295E-11
   891    1051.0       3.69772E-11
   892    1052.0       3.60488E-11
   893    1053.0       3.51437E-11
   894    1054.0       3.42614E-11
   895    1055.0       3.34012E-11
   896    1056.0       3.25626E-11
   897    1057.0       3.17451E-11
   898    1058.0       3.09481E-11
   899    1059.0       3.01711E-11
   900    1060.0       2.94136E-11
   901    1061.0       2.86752E-11
   902    1062.0       2.79552E-11
   903    1063.0       2.72534E-11
   904    1064.0       2.65691E-11
   905    1065.0       2.59021E-11
   906    1066.0       2.52518E-11
   907    1067.0       2.46178E-11
   908    1068.0       2.39997E-11
   909    1069.0       2.33972E-11
   910    1070.0       2.28097E-11
   911    1071.0       2.22371E-11
   912    1072.0       2.16788E-11
   913    1073.0       2.11345E-11
   914    1074.0       2.06039E-11
   915    1075.0       2.00866E-11
   916    1076.0       1.95823E-11
   917    1077.0       1.90907E-11
   918    1078.0       1.86114E-11
   919    1079.0       1.81441E-11
   920    1080.0       1.76886E-11
   921    1081.0       1.72445E-11
   922    1082.0       1.68115E-11
   923    1083.0       1.63894E-11
   924    1084.0       1.59780E-11
   925    1085.0       1.55768E-11
   926    1086.0       1.51857E-11
   927    1087.0       1.48045E-11
   928    1088.0       1.44328E-11
   929    1089.0       1.40704E-11
   930    1090.0       1.37172E-11
   931    1091.0       1.33728E-11
   932    1092.0       1.30370E-11
   933    1093.0       1.27097E-11
   934    1094.0       1.23906E-11
   935    1095.0       1.20795E-11
   936    1096.0       1.17763E-11
   937    1097.0       1.14806E-11
   938    1098.0       1.11924E-11
   939    1099.0       1.09114E-11
   940    1100.0       1.06374E-11
   941    1101.0       1.03704E-11
   942    1102.0       1.01100E-11
   943    1103.0       9.85617E-12
   944    1104.0       9.60872E-12
   945    1105.0       9.36748E-12
   946    1106.0       9.13229E-12
   947    1107.0       8.90301E-12
   948    1108.0       8.67949E-12
   949    1109.0       8.46158E-12
   950    1110.0       8.24914E-12
   951    1111.0       8.04203E-12
   952    1112.0       7.84013E-12
   953    1113.0       7.64329E-12
   954    1114.0       7.45139E-12
   955    1115.0       7.26431E-12
   956    1116.0       7.08193E-12
   957    1117.0       6.90413E-12
   958    1118.0       6.73079E-12
   959    1119.0       6.56180E-12
   960    1120.0       6.39706E-12
   961    1121.0       6.23645E-12
   962    1122.0       6.07988E-12
   963    1123.0       5.92723E-12
   964    1124.0       5.77842E-12
   965    1125.0       5.63335E-12
   966    1126.0       5.49191E-12
   967    1127.0       5.35403E-12
   968    1128.0       5.21961E-12
   969    1129.0       5.08856E-12
   970    1130.0       4.96081E-12
   971    1131.0       4.83626E-12
   972    1132.0       4.71484E-12
   973    1133.0       4.59647E-12
   974    1134.0       4.48107E-12
   975    1135.0       4.36856E-12
   976    1136.0       4.25888E-12
   977    1137.0       4.15196E-12
   978    1138.0       4.04772E-12
   979    1139.0       3.94609E-12
   980    1140.0       3.84702E-12
   981    1141.0       3.75044E-12
   982    1142.0       3.65628E-12
   983    1143.0       3.56448E-12
   984    1144.0       3.47499E-12
   985    1145.0       3.38774E-12
   986    1146.0       3.30269E-12
   987    1147.0       3.21977E-12
   988    1148.0       3.13893E-12
   989    1149.0       3.06013E-12
   990    1150.0       2.98330E-12
   991    1151.0       2.90840E-12
   992    1152.0       2.83538E-12
   993    1153.0       2.76419E-12
   994    1154.0       2.69479E-12
   995    1155.0       2.62713E-12
   996    1156.0       2.56118E-12
   997    1157.0       2.49687E-12
   998    1158.0       2.43419E-12
   999    1159.0       2.37307E-12
  1000    1160.0       2.31349E-12
  1001    1161.0       2.25541E-12
  1002    1162.0       2.19878E-12
  1003    1163.0       2.14358E-12
  1004    1164.0       2.08976E-12
  1005    1165.0       2.03730E-12
  1006    1166.0       1.98615E-12
  1007    1167.0       1.93628E-12
  1008    1168.0       1.88767E-12
  1009    1169.0       1.84028E-12
  1010    1170.0       1.79407E-12
  1011    1171.0       1.74903E-12
  1012    1172.0       1.70512E-12
  1013    1173.0       1.66231E-12
  1014    1174.0       1.62058E-12
  1015    1175.0       1.57989E-12
  1016    1176.0       1.54022E-12
  1017    1177.0       1.50155E-12
  1018    1178.0       1.46385E-12
  1019    1179.0       1.42710E-12
  1020    1180.0       1.39127E-12
  1021    1181.0       1.35634E-12
  1022    1182.0       1.32229E-12
  1023    1183.0       1.28909E-12
  1024    1184.0       1.25673E-12
  1025    1185.0       1.22518E-12
  1026    1186.0       1.19442E-12
  1027    1187.0       1.16443E-12
  1028    1188.0       1.13519E-12
  1029    1189.0       1.10669E-12
  1030    1190.0       1.07891E-12
  1031    1191.0       1.05182E-12
  1032    1192.0       1.02541E-12
  1033    1193.0       9.99668E-13
  1034    1194.0       9.74570E-13
  1035    1195.0       9.50102E-13
  1036    1196.0       9.26248E-13
  1037    1197.0       9.02994E-13
  1038    1198.0       8.80322E-13
  1039    1199.0       8.58221E-13
  1040    1200.0       8.36674E-13
  1041    1201.0       8.15668E-13
  1042    1202.0       7.95189E-13
  1043    1203.0       7.75225E-13
  1044    1204.0       7.55762E-13
  1045    1205.0       7.36788E-13
  1046    1206.0       7.18290E-13
  1047    1207.0       7.00256E-13
  1048    1208.0       6.82675E-13
  1049    1209.0       6.65535E-13
  1050    1210.0       6.48826E-13
  1051    1211.0       6.32536E-13
  1052    1212.0       6.16656E-13
  1053    1213.0       6.01174E-13
  1054    1214.0       5.86080E-13
  1055    1215.0       5.71366E-13
  1056    1216.0       5.57021E-13
  1057    1217.0       5.43036E-13
  1058    1218.0       5.29402E-13
  1059    1219.0       5.16111E-13
  1060    1220.0       5.03153E-13
  1061    1221.0       4.90521E-13
  1062    1222.0       4.78206E-13
  1063    1223.0       4.66200E-13
  1064    1224.0       4.54495E-13
  1065    1225.0       4.43084E-13
  1066    1226.0       4.31960E-13
  1067    1227.0       4.21115E-13
  1068    1228.0       4.10542E-13
  1069    1229.0       4.00235E-13
  1070    1230.0       3.90186E-13
  1071    1231.0       3.80390E-13
  1072    1232.0       3.70840E-13
  1073    1233.0       3.61530E-13
  1074    1234.0       3.52453E-13
  1075    1235.0       3.43604E-13
  1076    1236.0       3.34977E-13
  1077    1237.0       3.26567E-13
  1078    1238.0       3.18368E-13
  1079    1239.0       3.10375E-13
  1080    1240.0       3.02583E-13
  1081    1241.0       2.94986E-13
  1082    1242.0       2.87580E-13
  1083    1243.0       2.80360E-13
  1084    1244.0       2.73321E-13
  1085    1245.0       2.66459E-13
  1086    1246.0       2.59769E-13
  1087    1247.0       2.53247E-13
  1088    1248.0       2.46889E-13
  1089    1249.0       2.40690E-13
  1090    1250.0       2.34648E-13
  1091    1251.0       2.28756E-13
  1092    1252.0       2.23013E-13
  1093    1253.0       2.17414E-13
  1094    1254.0       2.11956E-13
  1095    1255.0       2.06634E-13
  1096    1256.0       2.01446E-13
  1097    1257.0       1.96389E-13
  1098    1258.0       1.91458E-13
  1099    1259.0       1.86651E-13
  1100    1260.0       1.81965E-13
  1101    1261.0       1.77397E-13
  1102    1262.0       1.72943E-13
  1103    1263.0       1.68601E-13
  1104    1264.0       1.64368E-13
  1105    1265.0       1.60241E-13
  1106    1266.0       1.56218E-13
  1107    1267.0       1.52296E-13
  1108    1268.0       1.48472E-13
  1109    1269.0       1.44745E-13
  1110    1270.0       1.41111E-13
  1111    1271.0       1.37568E-13
  1112    1272.0       1.34114E-13
  1113    1273.0       1.30747E-13
  1114    1274.0       1.27464E-13
  1115    1275.0       1.24264E-13
  1116    1276.0       1.21144E-13
  1117    1277.0       1.18103E-13
  1118    1278.0       1.15138E-13
  1119    1279.0       1.12247E-13
  1120    1280.0       1.09429E-13
  1121    1281.0       1.06682E-13
  1122    1282.0       1.04003E-13
  1123    1283.0       1.01392E-13
  1124    1284.0       9.88464E-14
  1125    1285.0       9.63647E-14
  1126    1286.0       9.39454E-14
  1127    1287.0       9.15867E-14
  1128    1288.0       8.92873E-14
  1129    1289.0       8.70456E-14
  1130    1290.0       8.48602E-14
  1131    1291.0       8.27297E-14
  1132    1292.0       8.06527E-14
  1133    1293.0       7.86278E-14
  1134    1294.0       7.66537E-14
  1135    1295.0       7.47292E-14
  1136    1296.0       7.28530E-14
  1137    1297.0       7.10239E-14
  1138    1298.0       6.92408E-14
  1139    1299.0       6.75024E-14
  1140    1300.0       6.58076E-14
  1141    1301.0       6.41554E-14
  1142    1302.0       6.25447E-14
  1143    1303.0       6.09745E-14
  1144    1304.0       5.94436E-14
  1145    1305.0       5.79512E-14
  1146    1306.0       5.64962E-14
  1147    1307.0       5.50778E-14
  1148    1308.0       5.36950E-14
  1149    1309.0       5.23469E-14
  1150    1310.0       5.10327E-14
  1151    1311.0       4.97514E-14
  1152    1312.0       4.85023E-14
  1153    1313.0       4.72846E-14
  1154    1314.0       4.60975E-14
  1155    1315.0       4.49401E-14
  1156    1316.0       4.38118E-14
  1157    1317.0       4.27119E-14
  1158    1318.0       4.16395E-14
  1159    1319.0       4.05941E-14
  1160    1320.0       3.95749E-14
  1161    1321.0       3.85813E-14
  1162    1322.0       3.76127E-14
  1163    1323.0       3.66684E-14
  1164    1324.0       3.57478E-14
  1165    1325.0       3.48503E-14
  1166    1326.0       3.39753E-14
  1167    1327.0       3.31223E-14
  1168    1328.0       3.22907E-14
  1169    1329.0       3.14800E-14
  1170    1330.0       3.06897E-14
  1171    1331.0       2.99192E-14
  1172    1332.0       2.91680E-14
  1173    1333.0       2.84357E-14
  1174    1334.0       2.77218E-14
  1175    1335.0       2.70258E-14
  1176    1336.0       2.63473E-14
  1177    1337.0       2.56858E-14
  1178    1338.0       2.50409E-14
  1179    1339.0       2.44122E-14
  1180    1340.0       2.37993E-14
  1181    1341.0       2.32018E-14
  1182    1342.0       2.26193E-14
  1183    1343.0       2.20514E-14
  1184    1344.0       2.14978E-14
  1185    1345.0       2.09580E-14
  1186    1346.0       2.04318E-14
  1187    1347.0       1.99189E-14
  1188    1348.0       1.94188E-14
  1189    1349.0       1.89313E-14
  1190    1350.0       1.84560E-14
  1191    1351.0       1.79926E-14
  1192    1352.0       1.75409E-14
  1193    1353.0       1.71005E-14
  1194    1354.0       1.66711E-14
  1195    1355.0       1.62526E-14
  1196    1356.0       1.58445E-14
  1197    1357.0       1.54467E-14
  1198    1358.0       1.50589E-14
  1199    1359.0       1.46809E-14
  1200    1360.0       1.43123E-14
  1201    1361.0       1.39529E-14
  1202    1362.0       1.36026E-14
  1203    1363.0       1.32611E-14
  1204    1364.0       1.29282E-14
  1205    1365.0       1.26036E-14
  1206    1366.0       1.22872E-14
  1207    1367.0       1.19787E-14
  1208    1368.0       1.16779E-14
  1209    1369.0       1.13847E-14
  1210    1370.0       1.10989E-14
  1211    1371.0       1.08203E-14
  1212    1372.0       1.05486E-14
  1213    1373.0       1.02838E-14
  1214    1374.0       1.00256E-14
  1215    1375.0       9.77386E-15
  1216    1376.0       9.52848E-15
  1217    1377.0       9.28926E-15
  1218    1378.0       9.05603E-15
  1219    1379.0       8.82867E-15
  1220    1380.0       8.60701E-15
  1221    1381.0       8.39092E-15
  1222    1382.0       8.18026E-15
  1223    1383.0       7.97488E-15
  1224    1384.0       7.77466E-15
  1225    1385.0       7.57947E-15
  1226    1386.0       7.38917E-15
  1227    1387.0       7.20366E-15
  1228    1388.0       7.02280E-15
  1229    1389.0       6.84648E-15
  1230    1390.0       6.67459E-15
  1231    1391.0       6.50702E-15
  1232    1392.0       6.34365E-15
  1233    1393.0       6.18438E-15
  1234    1394.0       6.02911E-15
  1235    1395.0       5.87774E-15
  1236    1396.0       5.73018E-15
  1237    1397.0       5.58631E-15
  1238    1398.0       5.44606E-15
  1239    1399.0       5.30933E-15
  1240    1400.0       5.17603E-15
  1241    1401.0       5.04608E-15
  1242    1402.0       4.91939E-15
  1243    1403.0       4.79588E-15
  1244    1404.0       4.67547E-15
  1245    1405.0       4.55809E-15
  1246    1406.0       4.44365E-15
  1247    1407.0       4.33208E-15
  1248    1408.0       4.22332E-15
  1249    1409.0       4.11729E-15
  1250    1410.0       4.01392E-15
  1251    1411.0       3.91314E-15
  1252    1412.0       3.81490E-15
  1253    1413.0       3.71912E-15
  1254    1414.0       3.62574E-15
  1255    1415.0       3.53472E-15
  1256    1416.0       3.44597E-15
  1257    1417.0       3.35946E-15
  1258    1418.0       3.27511E-15
  1259    1419.0       3.19288E-15
  1260    1420.0       3.11272E-15
  1261    1421.0       3.03457E-15
  1262    1422.0       2.95839E-15
  1263    1423.0       2.88411E-15
  1264    1424.0       2.81170E-15
  1265    1425.0       2.74111E-15
  1266    1426.0       2.67229E-15
  1267    1427.0       2.60520E-15
  1268    1428.0       2.53979E-15
  1269    1429.0       2.47603E-15
  1270    1430.0       2.41386E-15
  1271    1431.0       2.35326E-15
  1272    1432.0       2.29418E-15
  1273    1433.0       2.23658E-15
  1274    1434.0       2.18043E-15
  1275    1435.0       2.12568E-15
  1276    1436.0       2.07231E-15
  1277    1437.0       2.02029E-15
  1278    1438.0       1.96956E-15
  1279    1439.0       1.92011E-15
  1280    1440.0       1.87191E-15
  1281    1441.0       1.82491E-15
  1282    1442.0       1.77909E-15
  1283    1443.0       1.73443E-15
  1284    1444.0       1.69088E-15
  1285    1445.0       1.64843E-15
  1286    1446.0       1.60704E-15
  1287    1447.0       1.56670E-15
  1288    1448.0       1.52736E-15
  1289    1449.0       1.48901E-15
  1290    1450.0       1.45163E-15
  1291    1451.0       1.41519E-15
  1292    1452.0       1.37966E-15
  1293    1453.0       1.34502E-15
  1294    1454.0       1.31125E-15
  1295    1455.0       1.27833E-15
  1296    1456.0       1.24623E-15
  1297    1457.0       1.21495E-15
  1298    1458.0       1.18444E-15
  1299    1459.0       1.15471E-15
  1300    1460.0       1.12571E-15
  1301    1461.0       1.09745E-15
  1302    1462.0       1.06990E-15
  1303    1463.0       1.04304E-15
  1304    1464.0       1.01685E-15
  1305    1465.0       9.91321E-16
  1306    1466.0       9.66433E-16
  1307    1467.0       9.42169E-16
  1308    1468.0       9.18514E-16
  1309    1469.0       8.95454E-16
  1310    1470.0       8.72972E-16
  1311    1471.0       8.51055E-16
  1312    1472.0       8.29688E-16
  1313    1473.0       8.08858E-16
  1314    1474.0       7.88550E-16
  1315    1475.0       7.68752E-16
  1316    1476.0       7.49452E-16
  1317    1477.0       7.30636E-16
  1318    1478.0       7.12292E-16
  1319    1479.0       6.94409E-16
  1320    1480.0       6.76975E-16
  1321    1481.0       6.59978E-16
  1322    1482.0       6.43409E-16
  1323    1483.0       6.27255E-16
  1324    1484.0       6.11507E-16
  1325    1485.0       5.96154E-16
  1326    1486.0       5.81187E-16
  1327    1487.0       5.66595E-16
  1328    1488.0       5.52370E-16
  1329    1489.0       5.38502E-16
  1330    1490.0       5.24982E-16
  1331    1491.0       5.11802E-16
  1332    1492.0       4.98952E-16
  1333    1493.0       4.86425E-16
  1334    1494.0       4.74213E-16
  1335    1495.0       4.62307E-16
  1336    1496.0       4.50700E-16
  1337    1497.0       4.39385E-16
  1338    1498.0       4.28353E-16
  1339    1499.0       4.17599E-16
  1340    1500.0       4.07114E-16
