  STEP   TOTAL TIME             LOCATION OF OBSERVATION POINTS (K,I,J)
                      3  11  29     3  19  26     3  26  23     3  33  20     3  40  17     3  48  14     3  48   9     3  52  17
     1    2.2500        93.220        88.673        72.097        72.062        42.957        19.987        9.9646        7.6312    
     2    4.9500        71.941        73.552        58.786        58.875        35.602        16.708        8.0696        6.1055    
     3    8.1900        63.292        69.526        54.680        54.821        33.635        15.909        7.4449        5.5616    
     4    12.078        57.594        68.310        52.867        53.004        33.030        15.732        7.1826        5.2683    
     5    16.744        52.508        67.893        51.692        51.767        32.828        15.732        7.0245        5.0370    
     6    22.342        47.515        67.772        50.779        50.724        32.815        15.801        6.9043        4.8241    
     7    29.061        42.521        67.735        50.029        49.762        32.929        15.907        6.8042        4.6200    
     8    37.123        37.543        67.592        49.403        48.826        33.141        16.032        6.7173        4.4229    
     9    46.798        32.649        67.110        48.880        47.878        33.422        16.162        6.6383        4.2322    
    10    58.407        27.930        66.009        48.446        46.888        33.736        16.287        6.5613        4.0472    
    11    72.338        23.482        63.982        48.079        45.835        34.035        16.403        6.4787        3.8669    
    12    89.056        19.392        60.747        47.726        44.703        34.256        16.509        6.3810        3.6922    
    13    109.12        15.725        56.136        47.260        43.480        34.323        16.611        6.2584        3.5288    
    14    133.19        12.519        50.188        46.445        42.152        34.157        16.718        6.1048        3.3888    
    15    162.08        9.7823        43.206        44.927        40.677        33.686        16.833        5.9256        3.2877    
    16    196.74        7.5006        35.723        42.330        38.961        32.851        16.943        5.7449        3.2344    
    17    238.34        5.6393        28.368        38.425        36.825        31.605        16.999        5.6031        3.2189    
    18    288.26        4.1533        21.689        33.304        34.046        29.895        16.917        5.5363        3.2064    
    19    348.17        2.9921        16.027        27.420        30.456        27.653        16.583        5.5406        3.1467    
    20    420.05        2.1055        11.492        21.432        26.088        24.827        15.878        5.5464        2.9967    
    21    500.00        1.4773        8.1907        16.255        21.550        21.676        14.812        5.4498        2.7632    
    22    603.51       0.98783        5.5669        11.584        16.636        17.874        13.177        5.1086        2.4250    
    23    727.73       0.64506        3.6970        7.9596        12.191        13.986        11.146        4.4922        2.0425    
    24    750.00       0.59040        3.3975        7.3680        11.440        13.312        10.781        4.3757        1.9751    
    25    928.87       0.35810        2.0985        4.6722        7.5854        9.3814        8.2388        3.4057        1.5469    
    26    1000.0       0.28878        1.7064        3.8433        6.3410        8.0399        7.3060        3.0318        1.3947    
    27    1257.6       0.16677       0.99517        2.3063        3.8790        5.1134        4.9602        2.0445        1.0146    
    28    1566.7       9.73408E-02   0.57338        1.3760        2.3427        3.1585        3.2131        1.3040       0.71266    
    29    1937.6       5.88544E-02   0.32794       0.81270        1.4058        1.9194        2.0171       0.80456       0.48231    
    30    2000.0       5.34016E-02   0.29267       0.73071        1.2693        1.7375        1.8384       0.73031       0.44688    
